# extracted from jaksch_zoller_pulses.agr
#  t [ns]   E [MHz]
0.080016003 0
0.24004801 0
0.40008002 0
0.56011202 0
0.72014403 0
0.88017604 0
1.040208 0
1.20024 0
1.3602721 0
1.5203041 0
1.6803361 0
1.8403681 0
2.0004001 0
2.1604321 0
2.3204641 0
2.4804961 0
2.6405281 0
2.8005601 0
2.9605921 0
3.1206241 0
3.2806561 0
3.4406881 0
3.6007201 0
3.7607522 0
3.9207842 0
4.0808162 0
4.2408482 0
4.4008802 0
4.5609122 0
4.7209442 0
4.8809762 0
5.0410082 0
5.2010402 0
5.3610722 0
5.5211042 0
5.6811362 0
5.8411682 0
6.0012002 0
6.1612322 0
6.3212643 0
6.4812963 0
6.6413283 0
6.8013603 0
6.9613923 0
7.1214243 0
7.2814563 0
7.4414883 0
7.6015203 0
7.7615523 0
7.9215843 0
8.0816163 0
8.2416483 0
8.4016803 0
8.5617123 0
8.7217443 0
8.8817764 0
9.0418084 0
9.2018404 0
9.3618724 0
9.5219044 0
9.6819364 0
9.8419684 0
10.002 0
10.162032 0
10.322064 0
10.482096 0
10.642128 0
10.80216 0
10.962192 0
11.122224 0
11.282256 0
11.442288 0
11.60232 0
11.762352 0
11.922384 0
12.082416 0
12.242448 0
12.40248 0
12.562513 0
12.722545 0
12.882577 0
13.042609 0
13.202641 0
13.362673 0
13.522705 0
13.682737 0
13.842769 0
14.002801 0
14.162833 0
14.322865 0
14.482897 0
14.642929 0
14.802961 0
14.962993 0
15.123025 0
15.283057 0
15.443089 0
15.603121 0
15.763153 0
15.923185 0
16.083217 0
16.243249 0
16.403281 0
16.563313 0
16.723345 0
16.883377 0
17.043409 0
17.203441 0
17.363473 0
17.523505 0
17.683537 0
17.843569 0
18.003601 0
18.163633 0
18.323665 0
18.483697 0
18.643729 0
18.803761 0
18.963793 0
19.123825 0
19.283857 0
19.443889 0
19.603921 0
19.763953 0
19.923985 0
20.084017 0
20.244049 0
20.404081 0
20.564113 0
20.724145 0
20.884177 0
21.044209 0
21.204241 0
21.364273 0
21.524305 0
21.684337 0
21.844369 0
22.004401 0
22.164433 0
22.324465 0
22.484497 0
22.644529 0
22.804561 0
22.964593 0
23.124625 0
23.284657 0
23.444689 0
23.604721 0
23.764753 0
23.924785 0
24.084817 0
24.244849 0
24.404881 0
24.564913 0
24.724945 0
24.884977 0
25.045009 0
25.205041 0
25.365073 0
25.525105 0
25.685137 0
25.845169 0
26.005201 0
26.165233 0
26.325265 0
26.485297 0
26.645329 0
26.805361 0
26.965393 0
27.125425 0
27.285457 0
27.445489 0
27.605521 0
27.765553 0
27.925585 0
28.085617 0
28.245649 0
28.405681 0
28.565713 0
28.725745 0
28.885777 0
29.045809 0
29.205841 0
29.365873 0
29.525905 0
29.685937 0
29.845969 0
30.006001 0
30.166033 0
30.326065 0
30.486097 0
30.646129 0
30.806161 0
30.966193 0
31.126225 0
31.286257 0
31.446289 0
31.606321 0
31.766353 0
31.926385 0
32.086417 0
32.246449 0
32.406481 0
32.566513 0
32.726545 0
32.886577 0
33.046609 0
33.206641 0
33.366673 0
33.526705 0
33.686737 0
33.846769 0
34.006801 0
34.166833 0
34.326865 0
34.486897 0
34.646929 0
34.806961 0
34.966993 0
35.127025 0
35.287057 0
35.447089 0
35.607121 0
35.767153 0
35.927185 0
36.087217 0
36.247249 0
36.407281 0
36.567313 0
36.727345 0
36.887377 0
37.047409 0
37.207441 0
37.367473 0
37.527506 0
37.687538 0
37.84757 0
38.007602 0
38.167634 0
38.327666 0
38.487698 0
38.64773 0
38.807762 0
38.967794 0
39.127826 0
39.287858 0
39.44789 0
39.607922 0
39.767954 0
39.927986 0
40.088018 0
40.24805 0
40.408082 0
40.568114 0
40.728146 0
40.888178 0
41.04821 0
41.208242 0
41.368274 0
41.528306 0
41.688338 0
41.84837 0
42.008402 0
42.168434 0
42.328466 0
42.488498 0
42.64853 0
42.808562 0
42.968594 0
43.128626 0
43.288658 0
43.44869 0
43.608722 0
43.768754 0
43.928786 0
44.088818 0
44.24885 0
44.408882 0
44.568914 0
44.728946 0
44.888978 0
45.04901 0
45.209042 0
45.369074 0
45.529106 0
45.689138 0
45.84917 0
46.009202 0
46.169234 0
46.329266 0
46.489298 0
46.64933 0
46.809362 0
46.969394 0
47.129426 0
47.289458 0
47.44949 0
47.609522 0
47.769554 0
47.929586 0
48.089618 0
48.24965 0
48.409682 0
48.569714 0
48.729746 0
48.889778 0
49.04981 0
49.209842 0
49.369874 0
49.529906 0
49.689938 0
49.84997 0
50.010002 3.981742e-08
50.170034 1.1507244e-05
50.330066 4.3361309e-05
50.490098 9.5602297e-05
50.65013 0.00016823067
50.810162 0.00026124709
50.970194 0.00037465238
51.130226 0.00050844755
51.290258 0.0006626338
51.45029 0.00083721251
51.610322 0.0010321852
51.770354 0.0012475537
51.930386 0.0014833199
52.090418 0.0017394859
52.25045 0.002016054
52.410482 0.0023130266
52.570514 0.0026304064
52.730546 0.0029681963
52.890578 0.0033263992
53.05061 0.0037050184
53.210642 0.0041040572
53.370674 0.0045235192
53.530706 0.0049634082
53.690738 0.0054237281
53.85077 0.0059044829
54.010802 0.006405677
54.170834 0.0069273149
54.330866 0.0074694011
54.490898 0.0080319406
54.65093 0.0086149384
54.810962 0.0092183996
54.970994 0.0098423296
55.131026 0.010486734
55.291058 0.011151619
55.45109 0.011836989
55.611122 0.012542852
55.771154 0.013269213
55.931186 0.014016079
56.091218 0.014783457
56.25125 0.015571353
56.411282 0.016379774
56.571314 0.017208728
56.731346 0.018058222
56.891378 0.018928264
57.05141 0.01981886
57.211442 0.02073002
57.371474 0.021661751
57.531506 0.022614062
57.691538 0.02358696
57.85157 0.024580455
58.011602 0.025594556
58.171634 0.02662927
58.331666 0.027684609
58.491698 0.02876058
58.65173 0.029857194
58.811762 0.030974459
58.971794 0.032112387
59.131826 0.033270987
59.291858 0.034450269
59.45189 0.035650244
59.611922 0.036870922
59.771954 0.038112315
59.931986 0.039374432
60.092018 0.040657286
60.25205 0.041960887
60.412082 0.043285247
60.572114 0.044630378
60.732146 0.045996292
60.892178 0.047383
61.05221 0.048790514
61.212242 0.050218848
61.372274 0.051668014
61.532306 0.053138024
61.692338 0.054628891
61.85237 0.056140629
62.012402 0.05767325
62.172434 0.059226769
62.332466 0.060801198
62.492498 0.062396552
62.652531 0.064012844
62.812563 0.065650089
62.972595 0.0673083
63.132627 0.068987494
63.292659 0.070687683
63.452691 0.072408883
63.612723 0.07415111
63.772755 0.075914377
63.932787 0.077698701
64.092819 0.079504097
64.252851 0.08133058
64.412883 0.083178168
64.572915 0.085046875
64.732947 0.086936718
64.892979 0.088847713
65.053011 0.090779877
65.213043 0.092733227
65.373075 0.09470778
65.533107 0.096703552
65.693139 0.098720561
65.853171 0.10075882
66.013203 0.10281836
66.173235 0.10489919
66.333267 0.10700132
66.493299 0.10912478
66.653331 0.11126958
66.813363 0.11343575
66.973395 0.11562329
67.133427 0.11783224
67.293459 0.12006261
67.453491 0.12231441
67.613523 0.12458767
67.773555 0.12688241
67.933587 0.12919865
68.093619 0.1315364
68.253651 0.13389569
68.413683 0.13627654
68.573715 0.13867896
68.733747 0.14110298
68.893779 0.14354862
69.053811 0.14601589
69.213843 0.14850483
69.373875 0.15101545
69.533907 0.15354777
69.693939 0.15610181
69.853971 0.1586776
70.014003 0.16127516
70.174035 0.16389451
70.334067 0.16653567
70.494099 0.16919866
70.654131 0.17188351
70.814163 0.17459024
70.974195 0.17731886
71.134227 0.18006942
71.294259 0.18284192
71.454291 0.1856364
71.614323 0.18845286
71.774355 0.19129135
71.934387 0.19415188
72.094419 0.19703448
72.254451 0.19993916
72.414483 0.20286596
72.574515 0.2058149
72.734547 0.208786
72.894579 0.21177929
73.054611 0.2147948
73.214643 0.21783254
73.374675 0.22089255
73.534707 0.22397484
73.694739 0.22707945
73.854771 0.2302064
74.014803 0.23335572
74.174835 0.23652743
74.334867 0.23972155
74.494899 0.24293812
74.654931 0.24617717
74.814963 0.24943871
74.974995 0.25272277
75.135027 0.25602939
75.295059 0.25935858
75.455091 0.26271038
75.615123 0.26608482
75.775155 0.26948192
75.935187 0.2729017
76.095219 0.2763442
76.255251 0.27980945
76.415283 0.28329747
76.575315 0.28680829
76.735347 0.29034194
76.895379 0.29389845
77.055411 0.29747784
77.215443 0.30108016
77.375475 0.30470542
77.535507 0.30835365
77.695539 0.31202489
77.855571 0.31571916
78.015603 0.31943649
78.175635 0.32317692
78.335667 0.32694047
78.495699 0.33072718
78.655731 0.33453706
78.815763 0.33837017
78.975795 0.34222651
79.135827 0.34610614
79.295859 0.35000907
79.455891 0.35393533
79.615923 0.35788497
79.775955 0.36185801
79.935987 0.36585448
80.096019 0.36987441
80.256051 0.37391783
80.416083 0.37798479
80.576115 0.3820753
80.736147 0.3861894
80.896179 0.39032713
81.056211 0.39448851
81.216243 0.39867359
81.376275 0.40288238
81.536307 0.40711493
81.696339 0.41137126
81.856371 0.41565142
82.016403 0.41995543
82.176435 0.42428333
82.336467 0.42863515
82.496499 0.43301092
82.656531 0.43741068
82.816563 0.44183447
82.976595 0.44628231
83.136627 0.45075424
83.296659 0.4552503
83.456691 0.45977052
83.616723 0.46431494
83.776755 0.46888358
83.936787 0.47347649
84.096819 0.4780937
84.256851 0.48273524
84.416883 0.48740116
84.576915 0.49209148
84.736947 0.49680624
84.896979 0.50154548
85.057011 0.50630924
85.217043 0.51109754
85.377075 0.51591043
85.537107 0.52074794
85.697139 0.52561011
85.857171 0.53049697
86.017203 0.53540857
86.177235 0.54034493
86.337267 0.5453061
86.497299 0.55029212
86.657331 0.55530301
86.817363 0.56033882
86.977395 0.56539958
87.137427 0.57048534
87.297459 0.57559612
87.457491 0.58073198
87.617524 0.58589293
87.777556 0.59107904
87.937588 0.59629032
88.09762 0.60152683
88.257652 0.60678859
88.417684 0.61207565
88.577716 0.61738805
88.737748 0.62272582
88.89778 0.628089
89.057812 0.63347764
89.217844 0.63889177
89.377876 0.64433143
89.537908 0.64979666
89.69794 0.6552875
89.857972 0.660804
90.018004 0.66634618
90.178036 0.67191409
90.338068 0.67750777
90.4981 0.68312725
90.658132 0.68877259
90.818164 0.69444382
90.978196 0.70014098
91.138228 0.70586411
91.29826 0.71161325
91.458292 0.71738845
91.618324 0.72318974
91.778356 0.72901716
91.938388 0.73487076
92.09842 0.74075057
92.258452 0.74665665
92.418484 0.75258902
92.578516 0.75854773
92.738548 0.76453283
92.89858 0.77054435
93.058612 0.77658234
93.218644 0.78264684
93.378676 0.78873789
93.538708 0.79485553
93.69874 0.8009998
93.858772 0.80717075
94.018804 0.81336843
94.178836 0.81959286
94.338868 0.8258441
94.4989 0.83212219
94.658932 0.83842717
94.818964 0.84475909
94.978996 0.85111798
95.139028 0.85750389
95.29906 0.86391686
95.459092 0.87035695
95.619124 0.87682418
95.779156 0.88331861
95.939188 0.88984028
96.09922 0.89638922
96.259252 0.9029655
96.419284 0.90956914
96.579316 0.9162002
96.739348 0.92285872
96.89938 0.92954473
97.059412 0.9362583
97.219444 0.94299946
97.379476 0.94976825
97.539508 0.95656472
97.69954 0.96338892
97.859572 0.97024089
98.019604 0.97712067
98.179636 0.98402831
98.339668 0.99096386
98.4997 0.99792736
98.659732 1.0049189
98.819764 1.0119384
98.979796 1.018986
99.139828 1.0260618
99.29986 1.0331657
99.459892 1.0402978
99.619924 1.0474583
99.779956 1.054647
99.939988 1.0618641
100.10002 1.0691096
100.26005 1.0763836
100.42008 1.083686
100.58012 1.091017
100.74015 1.0983766
100.90018 1.1057649
101.06021 1.1131818
101.22024 1.1206274
101.38028 1.1281019
101.54031 1.1356051
101.70034 1.1431372
101.86037 1.1506983
102.0204 1.1582883
102.18044 1.1659073
102.34047 1.1735554
102.5005 1.1812326
102.66053 1.1889389
102.82056 1.1966745
102.9806 1.2044393
103.14063 1.2122334
103.30066 1.2200568
103.46069 1.2279096
103.62072 1.2357919
103.78076 1.2437036
103.94079 1.2516449
104.10082 1.2596158
104.26085 1.2676163
104.42088 1.2756465
104.58092 1.2837064
104.74095 1.291796
104.90098 1.2999156
105.06101 1.3080649
105.22104 1.3162442
105.38108 1.3244535
105.54111 1.3326928
105.70114 1.3409621
105.86117 1.3492616
106.0212 1.3575912
106.18124 1.365951
106.34127 1.3743411
106.5013 1.3827615
106.66133 1.3912123
106.82136 1.3996935
106.9814 1.4082051
107.14143 1.4167472
107.30146 1.4253199
107.46149 1.4339232
107.62152 1.4425571
107.78156 1.4512217
107.94159 1.4599171
108.10162 1.4686433
108.26165 1.4774004
108.42168 1.4861883
108.58172 1.4950072
108.74175 1.5038571
108.90178 1.512738
109.06181 1.52165
109.22184 1.5305932
109.38188 1.5395676
109.54191 1.5485732
109.70194 1.5576101
109.86197 1.5666783
110.022 1.575778
110.18204 1.5849091
110.34207 1.5940717
110.5021 1.6032658
110.66213 1.6124916
110.82216 1.621749
110.9822 1.631038
111.14223 1.6403589
111.30226 1.6497115
111.46229 1.659096
111.62232 1.6685123
111.78236 1.6779606
111.94239 1.687441
112.10242 1.6969533
112.26245 1.7064978
112.42248 1.7160744
112.58252 1.7256832
112.74255 1.7353243
112.90258 1.7449976
113.06261 1.7547033
113.22264 1.7644414
113.38268 1.774212
113.54271 1.7840151
113.70274 1.7938507
113.86277 1.8037189
114.0228 1.8136198
114.18284 1.8235534
114.34287 1.8335198
114.5029 1.8435189
114.66293 1.8535509
114.82296 1.8636158
114.983 1.8737137
115.14303 1.8838446
115.30306 1.8940086
115.46309 1.9042057
115.62312 1.9144359
115.78316 1.9246993
115.94319 1.9349961
116.10322 1.9453261
116.26325 1.9556895
116.42328 1.9660863
116.58332 1.9765166
116.74335 1.9869804
116.90338 1.9974778
117.06341 2.0080088
117.22344 2.0185735
117.38348 2.0291719
117.54351 2.0398041
117.70354 2.0504702
117.86357 2.0611701
118.0236 2.0719039
118.18364 2.0826717
118.34367 2.0934735
118.5037 2.1043095
118.66373 2.1151795
118.82376 2.1260838
118.9838 2.1370223
119.14383 2.1479951
119.30386 2.1590022
119.46389 2.1700437
119.62392 2.1811197
119.78396 2.1922301
119.94399 2.2033751
120.10402 2.2145547
120.26405 2.2257689
120.42408 2.2370179
120.58412 2.2483015
120.74415 2.25962
120.90418 2.2709734
121.06421 2.2823616
121.22424 2.2937848
121.38428 2.305243
121.54431 2.3167363
121.70434 2.3282647
121.86437 2.3398282
122.0244 2.3514269
122.18444 2.3630609
122.34447 2.3747303
122.5045 2.3864349
122.66453 2.398175
122.82456 2.4099506
122.9846 2.4217617
123.14463 2.4336083
123.30466 2.4454906
123.46469 2.4574085
123.62472 2.4693622
123.78476 2.4813516
123.94479 2.4933769
124.10482 2.505438
124.26485 2.517535
124.42488 2.5296681
124.58492 2.5418371
124.74495 2.5540423
124.90498 2.5662835
125.06501 2.578561
125.22505 2.5908746
125.38508 2.6032246
125.54511 2.6156109
125.70514 2.6280336
125.86517 2.6404927
126.02521 2.6529882
126.18524 2.6655204
126.34527 2.6780891
126.5053 2.6906944
126.66533 2.7033364
126.82537 2.7160152
126.9854 2.7287308
127.14543 2.7414831
127.30546 2.7542724
127.46549 2.7670986
127.62553 2.7799618
127.78556 2.7928621
127.94559 2.8057994
128.10562 2.8187739
128.26565 2.8317856
128.42569 2.8448345
128.58572 2.8579207
128.74575 2.8710442
128.90578 2.8842051
129.06581 2.8974035
129.22585 2.9106393
129.38588 2.9239127
129.54591 2.9372237
129.70594 2.9505723
129.86597 2.9639587
130.02601 2.9773827
130.18604 2.9908446
130.34607 3.0043442
130.5061 3.0178818
130.66613 3.0314573
130.82617 3.0450708
130.9862 3.0587223
131.14623 3.072412
131.30626 3.0861397
131.46629 3.0999056
131.62633 3.1137098
131.78636 3.1275523
131.94639 3.1414331
132.10642 3.1553522
132.26645 3.1693098
132.42649 3.1833059
132.58652 3.1973405
132.74655 3.2114137
132.90658 3.2255255
133.06661 3.239676
133.22665 3.2538652
133.38668 3.2680931
133.54671 3.2823599
133.70674 3.2966656
133.86677 3.3110102
134.02681 3.3253937
134.18684 3.3398163
134.34687 3.3542779
134.5069 3.3687786
134.66693 3.3833185
134.82697 3.3978976
134.987 3.4125159
135.14703 3.4271736
135.30706 3.4418706
135.46709 3.456607
135.62713 3.4713828
135.78716 3.4861981
135.94719 3.501053
136.10722 3.5159475
136.26725 3.5308816
136.42729 3.5458553
136.58732 3.5608688
136.74735 3.5759221
136.90738 3.5910152
137.06741 3.6061482
137.22745 3.6213211
137.38748 3.6365339
137.54751 3.6517868
137.70754 3.6670797
137.86757 3.6824127
138.02761 3.6977859
138.18764 3.7131992
138.34767 3.7286528
138.5077 3.7441467
138.66773 3.759681
138.82777 3.7752556
138.9878 3.7908706
139.14783 3.8065261
139.30786 3.8222221
139.46789 3.8379587
139.62793 3.8537359
139.78796 3.8695538
139.94799 3.8854124
140.10802 3.9013117
140.26805 3.9172517
140.42809 3.9332327
140.58812 3.9492545
140.74815 3.9653172
140.90818 3.9814209
141.06821 3.9975657
141.22825 4.0137514
141.38828 4.0299783
141.54831 4.0462464
141.70834 4.0625556
141.86837 4.0789061
142.02841 4.0952978
142.18844 4.1117309
142.34847 4.1282053
142.5085 4.1447212
142.66853 4.1612785
142.82857 4.1778773
142.9886 4.1945177
143.14863 4.2111996
143.30866 4.2279232
143.46869 4.2446884
143.62873 4.2614954
143.78876 4.2783441
143.94879 4.2952347
144.10882 4.3121671
144.26885 4.3291413
144.42889 4.3461575
144.58892 4.3632157
144.74895 4.3803159
144.90898 4.3974581
145.06901 4.4146425
145.22905 4.4318689
145.38908 4.4491376
145.54911 4.4664485
145.70914 4.4838017
145.86917 4.5011971
146.02921 4.518635
146.18924 4.5361152
146.34927 4.5536378
146.5093 4.5712029
146.66933 4.5888105
146.82937 4.6064607
146.9894 4.6241535
147.14943 4.6418889
147.30946 4.659667
147.46949 4.6774878
147.62953 4.6953514
147.78956 4.7132577
147.94959 4.7312069
148.10962 4.749199
148.26965 4.7672339
148.42969 4.7853119
148.58972 4.8034328
148.74975 4.8215968
148.90978 4.8398038
149.06981 4.858054
149.22985 4.8763472
149.38988 4.8946837
149.54991 4.9130634
149.70994 4.9314864
149.86997 4.9499527
150.03001 4.9684623
150.19004 4.9870153
150.35007 5.0056117
150.5101 5.0242516
150.67013 5.042935
150.83017 5.0616619
150.9902 5.0804323
151.15023 5.0992464
151.31026 5.1181041
151.47029 5.1370055
151.63033 5.1559506
151.79036 5.1749395
151.95039 5.1939721
152.11042 5.2130486
152.27045 5.2321689
152.43049 5.2513331
152.59052 5.2705413
152.75055 5.2897934
152.91058 5.3090895
153.07061 5.3284297
153.23065 5.3478139
153.39068 5.3672422
153.55071 5.3867147
153.71074 5.4062314
153.87077 5.4257923
154.03081 5.4453974
154.19084 5.4650468
154.35087 5.4847405
154.5109 5.5044786
154.67093 5.5242611
154.83097 5.5440879
154.991 5.5639592
155.15103 5.583875
155.31106 5.6038354
155.47109 5.6238402
155.63113 5.6438897
155.79116 5.6639838
155.95119 5.6841225
156.11122 5.7043059
156.27125 5.724534
156.43129 5.7448068
156.59132 5.7651245
156.75135 5.7854869
156.91138 5.8058942
157.07141 5.8263463
157.23145 5.8468434
157.39148 5.8673853
157.55151 5.8879723
157.71154 5.9086042
157.87157 5.9292812
158.03161 5.9500032
158.19164 5.9707703
158.35167 5.9915825
158.5117 6.0124399
158.67173 6.0333424
158.83177 6.0542902
158.9918 6.0752831
159.15183 6.0963214
159.31186 6.1174049
159.47189 6.1385337
159.63193 6.1597079
159.79196 6.1809275
159.95199 6.2021925
160.11202 6.2235029
160.27205 6.2448588
160.43209 6.2662601
160.59212 6.287707
160.75215 6.3091994
160.91218 6.3307374
161.07221 6.352321
161.23225 6.3739502
161.39228 6.395625
161.55231 6.4173456
161.71234 6.4391118
161.87237 6.4609238
162.03241 6.4827815
162.19244 6.504685
162.35247 6.5266343
162.5125 6.5486294
162.67253 6.5706704
162.83257 6.5927573
162.9926 6.61489
163.15263 6.6370687
163.31266 6.6592934
163.47269 6.681564
163.63273 6.7038807
163.79276 6.7262433
163.95279 6.7486521
164.11282 6.7711068
164.27285 6.7936077
164.43289 6.8161547
164.59292 6.8387478
164.75295 6.8613871
164.91298 6.8840726
165.07301 6.9068043
165.23305 6.9295823
165.39308 6.9524064
165.55311 6.9752769
165.71314 6.9981936
165.87317 7.0211567
166.03321 7.0441661
166.19324 7.0672218
166.35327 7.0903239
166.5133 7.1134724
166.67333 7.1366674
166.83337 7.1599088
166.9934 7.1831966
167.15343 7.2065309
167.31346 7.2299117
167.47349 7.253339
167.63353 7.2768129
167.79356 7.3003333
167.95359 7.3239002
168.11362 7.3475138
168.27365 7.3711739
168.43369 7.3948807
168.59372 7.4186342
168.75375 7.4424342
168.91378 7.466281
169.07381 7.4901744
169.23385 7.5141146
169.39388 7.5381015
169.55391 7.5621351
169.71394 7.5862155
169.87397 7.6103427
170.03401 7.6345166
170.19404 7.6587374
170.35407 7.6830049
170.5141 7.7073193
170.67413 7.7316806
170.83417 7.7560887
170.9942 7.7805437
171.15423 7.8050456
171.31426 7.8295944
171.47429 7.8541901
171.63433 7.8788327
171.79436 7.9035223
171.95439 7.9282588
172.11442 7.9530424
172.27445 7.9778729
172.43449 8.0027504
172.59452 8.0276749
172.75455 8.0526464
172.91458 8.0776649
173.07461 8.1027305
173.23465 8.1278432
173.39468 8.1530029
173.55471 8.1782096
173.71474 8.2034635
173.87477 8.2287645
174.03481 8.2541125
174.19484 8.2795077
174.35487 8.30495
174.5149 8.3304394
174.67493 8.355976
174.83497 8.3815598
174.995 8.4071906
175.15503 8.4328687
175.31506 8.4585939
175.4751 8.4843663
175.63513 8.5101859
175.79516 8.5360527
175.95519 8.5619667
176.11522 8.587928
176.27526 8.6139364
176.43529 8.639992
176.59532 8.6660949
176.75535 8.6922451
176.91538 8.7184424
177.07542 8.744687
177.23545 8.7709789
177.39548 8.797318
177.55551 8.8237044
177.71554 8.8501381
177.87558 8.876619
178.03561 8.9031472
178.19564 8.9297227
178.35567 8.9563454
178.5157 8.9830155
178.67574 9.0097328
178.83577 9.0364974
178.9958 9.0633094
179.15583 9.0901686
179.31586 9.1170751
179.4759 9.1440289
179.63593 9.17103
179.79596 9.1980784
179.95599 9.2251741
180.11602 9.2523171
180.27606 9.2795074
180.43609 9.306745
180.59612 9.3340299
180.75615 9.3613622
180.91618 9.3887417
181.07622 9.4161685
181.23625 9.4436426
181.39628 9.4711641
181.55631 9.4987328
181.71634 9.5263488
181.87638 9.5540121
182.03641 9.5817227
182.19644 9.6094806
182.35647 9.6372858
182.5165 9.6651382
182.67654 9.6930379
182.83657 9.7209849
182.9966 9.7489792
183.15663 9.7770208
183.31666 9.8051096
183.4767 9.8332456
183.63673 9.8614289
183.79676 9.8896595
183.95679 9.9179373
184.11682 9.9462624
184.27686 9.9746346
184.43689 10.003054
184.59692 10.031521
184.75695 10.060035
184.91698 10.088596
185.07702 10.117204
185.23705 10.14586
185.39708 10.174562
185.55711 10.203312
185.71714 10.232109
185.87718 10.260953
186.03721 10.289845
186.19724 10.318783
186.35727 10.347769
186.5173 10.376801
186.67734 10.405881
186.83737 10.435008
186.9974 10.464182
187.15743 10.493403
187.31746 10.522671
187.4775 10.551987
187.63753 10.581349
187.79756 10.610758
187.95759 10.640214
188.11762 10.669718
188.27766 10.699268
188.43769 10.728865
188.59772 10.758509
188.75775 10.7882
188.91778 10.817938
189.07782 10.847723
189.23785 10.877555
189.39788 10.907434
189.55791 10.93736
189.71794 10.967332
189.87798 10.997352
190.03801 11.027418
190.19804 11.057531
190.35807 11.087691
190.5181 11.117898
190.67814 11.148151
190.83817 11.178451
190.9982 11.208798
191.15823 11.239192
191.31826 11.269632
191.4783 11.300119
191.63833 11.330653
191.79836 11.361233
191.95839 11.39186
192.11842 11.422533
192.27846 11.453253
192.43849 11.48402
192.59852 11.514833
192.75855 11.545693
192.91858 11.576599
193.07862 11.607552
193.23865 11.638551
193.39868 11.669597
193.55871 11.700689
193.71874 11.731827
193.87878 11.763012
194.03881 11.794243
194.19884 11.82552
194.35887 11.856844
194.5189 11.888214
194.67894 11.91963
194.83897 11.951093
194.999 11.982601
195.15903 12.014156
195.31906 12.045757
195.4791 12.077404
195.63913 12.109098
195.79916 12.140837
195.95919 12.172622
196.11922 12.204454
196.27926 12.236331
196.43929 12.268254
196.59932 12.300224
196.75935 12.332239
196.91938 12.3643
197.07942 12.396407
197.23945 12.42856
197.39948 12.460758
197.55951 12.493003
197.71954 12.525293
197.87958 12.557629
198.03961 12.59001
198.19964 12.622437
198.35967 12.65491
198.5197 12.687428
198.67974 12.719992
198.83977 12.752602
198.9998 12.785257
199.15983 12.817957
199.31986 12.850703
199.4799 12.883494
199.63993 12.91633
199.79996 12.949212
199.95999 12.98214
200.12002 13.015112
200.28006 13.04813
200.44009 13.081193
200.60012 13.114301
200.76015 13.147454
200.92018 13.180652
201.08022 13.213895
201.24025 13.247184
201.40028 13.280517
201.56031 13.313895
201.72034 13.347319
201.88038 13.380787
202.04041 13.414299
202.20044 13.447857
202.36047 13.48146
202.5205 13.515107
202.68054 13.548798
202.84057 13.582535
203.0006 13.616316
203.16063 13.650142
203.32066 13.684012
203.4807 13.717926
203.64073 13.751886
203.80076 13.785889
203.96079 13.819937
204.12082 13.854029
204.28086 13.888165
204.44089 13.922346
204.60092 13.956571
204.76095 13.99084
204.92098 14.025153
205.08102 14.05951
205.24105 14.093911
205.40108 14.128357
205.56111 14.162846
205.72114 14.197379
205.88118 14.231956
206.04121 14.266576
206.20124 14.301241
206.36127 14.335949
206.5213 14.370701
206.68134 14.405496
206.84137 14.440335
207.0014 14.475217
207.16143 14.510143
207.32146 14.545113
207.4815 14.580126
207.64153 14.615182
207.80156 14.650281
207.96159 14.685424
208.12162 14.72061
208.28166 14.755838
208.44169 14.791111
208.60172 14.826426
208.76175 14.861784
208.92178 14.897185
209.08182 14.932629
209.24185 14.968115
209.40188 15.003645
209.56191 15.039217
209.72194 15.074832
209.88198 15.11049
210.04201 15.14619
210.20204 15.181932
210.36207 15.217718
210.5221 15.253545
210.68214 15.289415
210.84217 15.325327
211.0022 15.361282
211.16223 15.397278
211.32226 15.433317
211.4823 15.469398
211.64233 15.505521
211.80236 15.541686
211.96239 15.577893
212.12242 15.614142
212.28246 15.650432
212.44249 15.686764
212.60252 15.723138
212.76255 15.759554
212.92258 15.796011
213.08262 15.83251
213.24265 15.86905
213.40268 15.905632
213.56271 15.942255
213.72274 15.978919
213.88278 16.015624
214.04281 16.052371
214.20284 16.089159
214.36287 16.125987
214.5229 16.162857
214.68294 16.199768
214.84297 16.236719
215.003 16.273712
215.16303 16.310745
215.32306 16.347818
215.4831 16.384933
215.64313 16.422088
215.80316 16.459283
215.96319 16.496519
216.12322 16.533795
216.28326 16.571111
216.44329 16.608468
216.60332 16.645865
216.76335 16.683302
216.92338 16.720779
217.08342 16.758295
217.24345 16.795852
217.40348 16.833449
217.56351 16.871085
217.72354 16.908761
217.88358 16.946477
218.04361 16.984232
218.20364 17.022027
218.36367 17.059861
218.5237 17.097735
218.68374 17.135648
218.84377 17.1736
219.0038 17.211591
219.16383 17.249621
219.32386 17.287691
219.4839 17.325799
219.64393 17.363946
219.80396 17.402132
219.96399 17.440357
220.12402 17.47862
220.28406 17.516922
220.44409 17.555262
220.60412 17.593641
220.76415 17.632058
220.92418 17.670514
221.08422 17.709007
221.24425 17.747539
221.40428 17.786109
221.56431 17.824717
221.72434 17.863363
221.88438 17.902046
222.04441 17.940768
222.20444 17.979527
222.36447 18.018324
222.5245 18.057158
222.68454 18.09603
222.84457 18.134939
223.0046 18.173885
223.16463 18.212869
223.32466 18.25189
223.4847 18.290948
223.64473 18.330043
223.80476 18.369174
223.96479 18.408343
224.12482 18.447549
224.28486 18.486791
224.44489 18.526069
224.60492 18.565385
224.76495 18.604736
224.92498 18.644124
225.08502 18.683549
225.24505 18.723009
225.40508 18.762506
225.56511 18.802039
225.72515 18.841607
225.88518 18.881212
226.04521 18.920852
226.20524 18.960528
226.36527 19.00024
226.52531 19.039987
226.68534 19.079769
226.84537 19.119587
227.0054 19.159441
227.16543 19.199329
227.32547 19.239253
227.4855 19.279211
227.64553 19.319205
227.80556 19.359233
227.96559 19.399297
228.12563 19.439394
228.28566 19.479527
228.44569 19.519694
228.60572 19.559895
228.76575 19.600131
228.92579 19.640401
229.08582 19.680705
229.24585 19.721043
229.40588 19.761415
229.56591 19.801822
229.72595 19.842261
229.88598 19.882735
230.04601 19.923242
230.20604 19.963783
230.36607 20.004357
230.52611 20.044965
230.68614 20.085605
230.84617 20.126279
231.0062 20.166986
231.16623 20.207726
231.32627 20.248499
231.4863 20.289305
231.64633 20.330143
231.80636 20.371014
231.96639 20.411918
232.12643 20.452854
232.28646 20.493822
232.44649 20.534823
232.60652 20.575855
232.76655 20.61692
232.92659 20.658016
233.08662 20.699145
233.24665 20.740305
233.40668 20.781497
233.56671 20.82272
233.72675 20.863975
233.88678 20.905262
234.04681 20.946579
234.20684 20.987928
234.36687 21.029308
234.52691 21.070718
234.68694 21.11216
234.84697 21.153633
235.007 21.195136
235.16703 21.236669
235.32707 21.278233
235.4871 21.319828
235.64713 21.361453
235.80716 21.403108
235.96719 21.444793
236.12723 21.486508
236.28726 21.528253
236.44729 21.570028
236.60732 21.611832
236.76735 21.653666
236.92739 21.695529
237.08742 21.737422
237.24745 21.779344
237.40748 21.821295
237.56751 21.863276
237.72755 21.905285
237.88758 21.947323
238.04761 21.98939
238.20764 22.031485
238.36767 22.073609
238.52771 22.115761
238.68774 22.157942
238.84777 22.200151
239.0078 22.242388
239.16783 22.284653
239.32787 22.326946
239.4879 22.369267
239.64793 22.411615
239.80796 22.453991
239.96799 22.496394
240.12803 22.538825
240.28806 22.581283
240.44809 22.623768
240.60812 22.66628
240.76815 22.70882
240.92819 22.751385
241.08822 22.793978
241.24825 22.836597
241.40828 22.879243
241.56831 22.921915
241.72835 22.964613
241.88838 23.007338
242.04841 23.050088
242.20844 23.092865
242.36847 23.135667
242.52851 23.178495
242.68854 23.221349
242.84857 23.264228
243.0086 23.307132
243.16863 23.350062
243.32867 23.393017
243.4887 23.435996
243.64873 23.479001
243.80876 23.522031
243.96879 23.565085
244.12883 23.608164
244.28886 23.651267
244.44889 23.694394
244.60892 23.737546
244.76895 23.780722
244.92899 23.823922
245.08902 23.867146
245.24905 23.910393
245.40908 23.953664
245.56911 23.996959
245.72915 24.040277
245.88918 24.083618
246.04921 24.126983
246.20924 24.17037
246.36927 24.213781
246.52931 24.257214
246.68934 24.30067
246.84937 24.344149
247.0094 24.38765
247.16943 24.431173
247.32947 24.474719
247.4895 24.518286
247.64953 24.561876
247.80956 24.605487
247.96959 24.649121
248.12963 24.692775
248.28966 24.736452
248.44969 24.78015
248.60972 24.823868
248.76975 24.867609
248.92979 24.91137
249.08982 24.955152
249.24985 24.998954
249.40988 25.042778
249.56991 25.086622
249.72995 25.130486
249.88998 25.17437
250.05001 25.218275
250.21004 25.2622
250.37007 25.306144
250.53011 25.350108
250.69014 25.394092
250.85017 25.438096
251.0102 25.482119
251.17023 25.526161
251.33027 25.570222
251.4903 25.614302
251.65033 25.658401
251.81036 25.702519
251.97039 25.746656
252.13043 25.790811
252.29046 25.834984
252.45049 25.879176
252.61052 25.923386
252.77055 25.967613
252.93059 26.011859
253.09062 26.056122
253.25065 26.100403
253.41068 26.144702
253.57071 26.189017
253.73075 26.23335
253.89078 26.277701
254.05081 26.322068
254.21084 26.366451
254.37087 26.410852
254.53091 26.455269
254.69094 26.499703
254.85097 26.544152
255.011 26.588618
255.17103 26.6331
255.33107 26.677598
255.4911 26.722112
255.65113 26.766642
255.81116 26.811186
255.97119 26.855747
256.13123 26.900322
256.29126 26.944913
256.45129 26.989518
256.61132 27.034139
256.77135 27.078774
256.93139 27.123424
257.09142 27.168088
257.25145 27.212766
257.41148 27.257459
257.57151 27.302165
257.73155 27.346886
257.89158 27.39162
258.05161 27.436368
258.21164 27.48113
258.37167 27.525905
258.53171 27.570693
258.69174 27.615494
258.85177 27.660308
259.0118 27.705135
259.17183 27.749974
259.33187 27.794826
259.4919 27.839691
259.65193 27.884567
259.81196 27.929456
259.97199 27.974357
260.13203 28.01927
260.29206 28.064194
260.45209 28.10913
260.61212 28.154078
260.77215 28.199036
260.93219 28.244006
261.09222 28.288987
261.25225 28.333979
261.41228 28.378981
261.57231 28.423994
261.73235 28.469018
261.89238 28.514051
262.05241 28.559095
262.21244 28.604149
262.37247 28.649213
262.53251 28.694287
262.69254 28.73937
262.85257 28.784463
263.0126 28.829565
263.17263 28.874676
263.33267 28.919796
263.4927 28.964925
263.65273 29.010063
263.81276 29.05521
263.97279 29.100365
264.13283 29.145528
264.29286 29.190699
264.45289 29.235879
264.61292 29.281066
264.77295 29.326261
264.93299 29.371464
265.09302 29.416674
265.25305 29.461891
265.41308 29.507116
265.57311 29.552348
265.73315 29.597586
265.89318 29.642831
266.05321 29.688083
266.21324 29.733342
266.37327 29.778606
266.53331 29.823877
266.69334 29.869154
266.85337 29.914436
267.0134 29.959724
267.17343 30.005018
267.33347 30.050318
267.4935 30.095622
267.65353 30.140932
267.81356 30.186246
267.97359 30.231566
268.13363 30.27689
268.29366 30.322218
268.45369 30.367552
268.61372 30.412889
268.77375 30.45823
268.93379 30.503575
269.09382 30.548924
269.25385 30.594277
269.41388 30.639633
269.57391 30.684993
269.73395 30.730356
269.89398 30.775721
270.05401 30.82109
270.21404 30.866461
270.37407 30.911835
270.53411 30.957212
270.69414 31.00259
270.85417 31.047971
271.0142 31.093354
271.17423 31.138739
271.33427 31.184125
271.4943 31.229513
271.65433 31.274902
271.81436 31.320293
271.97439 31.365684
272.13443 31.411077
272.29446 31.45647
272.45449 31.501864
272.61452 31.547258
272.77455 31.592653
272.93459 31.638047
273.09462 31.683442
273.25465 31.728837
273.41468 31.774231
273.57471 31.819625
273.73475 31.865019
273.89478 31.910411
274.05481 31.955803
274.21484 32.001194
274.37487 32.046583
274.53491 32.091971
274.69494 32.137358
274.85497 32.182742
275.015 32.228125
275.17504 32.273506
275.33507 32.318885
275.4951 32.364262
275.65513 32.409636
275.81516 32.455007
275.9752 32.500376
276.13523 32.545742
276.29526 32.591105
276.45529 32.636464
276.61532 32.68182
276.77536 32.727173
276.93539 32.772522
277.09542 32.817867
277.25545 32.863208
277.41548 32.908545
277.57552 32.953877
277.73555 32.999205
277.89558 33.044529
278.05561 33.089848
278.21564 33.135161
278.37568 33.18047
278.53571 33.225773
278.69574 33.271071
278.85577 33.316363
279.0158 33.36165
279.17584 33.406931
279.33587 33.452205
279.4959 33.497474
279.65593 33.542736
279.81596 33.587991
279.976 33.63324
280.13603 33.678482
280.29606 33.723717
280.45609 33.768945
280.61612 33.814165
280.77616 33.859378
280.93619 33.904583
281.09622 33.949781
281.25625 33.994971
281.41628 34.040152
281.57632 34.085325
281.73635 34.13049
281.89638 34.175646
282.05641 34.220794
282.21644 34.265932
282.37648 34.311062
282.53651 34.356182
282.69654 34.401293
282.85657 34.446394
283.0166 34.491486
283.17664 34.536567
283.33667 34.581639
283.4967 34.6267
283.65673 34.671751
283.81676 34.716792
283.9768 34.761822
284.13683 34.806841
284.29686 34.851849
284.45689 34.896846
284.61692 34.941831
284.77696 34.986805
284.93699 35.031768
285.09702 35.076718
285.25705 35.121657
285.41708 35.166584
285.57712 35.211498
285.73715 35.2564
285.89718 35.301289
286.05721 35.346165
286.21724 35.391029
286.37728 35.435879
286.53731 35.480716
286.69734 35.52554
286.85737 35.57035
287.0174 35.615146
287.17744 35.659928
287.33747 35.704697
287.4975 35.749451
287.65753 35.794191
287.81756 35.838916
287.9776 35.883626
288.13763 35.928322
288.29766 35.973002
288.45769 36.017667
288.61772 36.062317
288.77776 36.106951
288.93779 36.15157
289.09782 36.196173
289.25785 36.24076
289.41788 36.28533
289.57792 36.329884
289.73795 36.374422
289.89798 36.418943
290.05801 36.463447
290.21804 36.507934
290.37808 36.552404
290.53811 36.596857
290.69814 36.641292
290.85817 36.685709
291.0182 36.730109
291.17824 36.77449
291.33827 36.818854
291.4983 36.863199
291.65833 36.907525
291.81836 36.951833
291.9784 36.996122
292.13843 37.040393
292.29846 37.084644
292.45849 37.128875
292.61852 37.173088
292.77856 37.21728
292.93859 37.261453
293.09862 37.305606
293.25865 37.349739
293.41868 37.393851
293.57872 37.437943
293.73875 37.482014
293.89878 37.526065
294.05881 37.570094
294.21884 37.614103
294.37888 37.65809
294.53891 37.702056
294.69894 37.746
294.85897 37.789922
295.019 37.833823
295.17904 37.877701
295.33907 37.921557
295.4991 37.965391
295.65913 38.009202
295.81916 38.05299
295.9792 38.096755
296.13923 38.140498
296.29926 38.184217
296.45929 38.227912
296.61932 38.271584
296.77936 38.315232
296.93939 38.358857
297.09942 38.402457
297.25945 38.446033
297.41948 38.489584
297.57952 38.533111
297.73955 38.576613
297.89958 38.620091
298.05961 38.663543
298.21964 38.70697
298.37968 38.750371
298.53971 38.793747
298.69974 38.837098
298.85977 38.880422
299.0198 38.92372
299.17984 38.966992
299.33987 39.010238
299.4999 39.053457
299.65993 39.096649
299.81996 39.139815
299.98 39.182953
300.14003 39.226064
300.30006 39.269148
300.46009 39.312205
300.62012 39.355233
300.78016 39.398234
300.94019 39.441206
301.10022 39.484151
301.26025 39.527067
301.42028 39.569954
301.58032 39.612813
301.74035 39.655643
301.90038 39.698444
302.06041 39.741215
302.22044 39.783958
302.38048 39.82667
302.54051 39.869354
302.70054 39.912007
302.86057 39.95463
303.0206 39.997223
303.18064 40.039785
303.34067 40.082318
303.5007 40.124819
303.66073 40.16729
303.82076 40.209729
303.9808 40.252137
304.14083 40.294514
304.30086 40.33686
304.46089 40.379174
304.62092 40.421456
304.78096 40.463706
304.94099 40.505924
305.10102 40.548109
305.26105 40.590262
305.42108 40.632382
305.58112 40.67447
305.74115 40.716524
305.90118 40.758546
306.06121 40.800534
306.22124 40.842488
306.38128 40.884409
306.54131 40.926296
306.70134 40.968149
306.86137 41.009968
307.0214 41.051753
307.18144 41.093503
307.34147 41.135219
307.5015 41.1769
307.66153 41.218545
307.82156 41.260156
307.9816 41.301732
308.14163 41.343271
308.30166 41.384776
308.46169 41.426244
308.62172 41.467677
308.78176 41.509074
308.94179 41.550434
309.10182 41.591758
309.26185 41.633045
309.42188 41.674295
309.58192 41.715509
309.74195 41.756685
309.90198 41.797825
310.06201 41.838926
310.22204 41.879991
310.38208 41.921017
310.54211 41.962006
310.70214 42.002956
310.86217 42.043869
311.0222 42.084743
311.18224 42.125578
311.34227 42.166375
311.5023 42.207133
311.66233 42.247851
311.82236 42.288531
311.9824 42.329171
312.14243 42.369772
312.30246 42.410333
312.46249 42.450854
312.62252 42.491335
312.78256 42.531776
312.94259 42.572177
313.10262 42.612537
313.26265 42.652857
313.42268 42.693136
313.58272 42.733373
313.74275 42.77357
313.90278 42.813725
314.06281 42.853839
314.22284 42.893912
314.38288 42.933942
314.54291 42.973931
314.70294 43.013877
314.86297 43.053781
315.023 43.093643
315.18304 43.133462
315.34307 43.173239
315.5031 43.212972
315.66313 43.252663
315.82316 43.29231
315.9832 43.331914
316.14323 43.371474
316.30326 43.410991
316.46329 43.450464
316.62332 43.489892
316.78336 43.529277
316.94339 43.568617
317.10342 43.607913
317.26345 43.647164
317.42348 43.68637
317.58352 43.725532
317.74355 43.764648
317.90358 43.803719
318.06361 43.842744
318.22364 43.881724
318.38368 43.920658
318.54371 43.959546
318.70374 43.998388
318.86377 44.037184
319.0238 44.075934
319.18384 44.114637
319.34387 44.153293
319.5039 44.191902
319.66393 44.230464
319.82396 44.26898
319.984 44.307447
320.14403 44.345868
320.30406 44.38424
320.46409 44.422565
320.62412 44.460842
320.78416 44.499071
320.94419 44.537251
321.10422 44.575383
321.26425 44.613467
321.42428 44.651501
321.58432 44.689487
321.74435 44.727424
321.90438 44.765311
322.06441 44.803149
322.22444 44.840938
322.38448 44.878677
322.54451 44.916366
322.70454 44.954005
322.86457 44.991594
323.0246 45.029133
323.18464 45.066621
323.34467 45.104059
323.5047 45.141446
323.66473 45.178782
323.82476 45.216067
323.9848 45.253301
324.14483 45.290483
324.30486 45.327614
324.46489 45.364693
324.62492 45.40172
324.78496 45.438695
324.94499 45.475619
325.10502 45.51249
325.26505 45.549308
325.42509 45.586074
325.58512 45.622787
325.74515 45.659447
325.90518 45.696055
326.06521 45.732609
326.22525 45.769109
326.38528 45.805556
326.54531 45.84195
326.70534 45.878289
326.86537 45.914575
327.02541 45.950807
327.18544 45.986984
327.34547 46.023107
327.5055 46.059176
327.66553 46.095189
327.82557 46.131148
327.9856 46.167052
328.14563 46.202901
328.30566 46.238694
328.46569 46.274432
328.62573 46.310115
328.78576 46.345741
328.94579 46.381312
329.10582 46.416827
329.26585 46.452285
329.42589 46.487687
329.58592 46.523033
329.74595 46.558322
329.90598 46.593554
330.06601 46.62873
330.22605 46.663848
330.38608 46.698909
330.54611 46.733913
330.70614 46.768859
330.86617 46.803747
331.02621 46.838578
331.18624 46.873351
331.34627 46.908066
331.5063 46.942722
331.66633 46.97732
331.82637 47.011859
331.9864 47.04634
332.14643 47.080762
332.30646 47.115125
332.46649 47.149429
332.62653 47.183674
332.78656 47.217859
332.94659 47.251985
333.10662 47.286051
333.26665 47.320057
333.42669 47.354003
333.58672 47.387889
333.74675 47.421715
333.90678 47.455481
334.06681 47.489186
334.22685 47.52283
334.38688 47.556413
334.54691 47.589936
334.70694 47.623397
334.86697 47.656797
335.02701 47.690136
335.18704 47.723413
335.34707 47.756629
335.5071 47.789782
335.66713 47.822874
335.82717 47.855904
335.9872 47.888871
336.14723 47.921776
336.30726 47.954619
336.46729 47.987399
336.62733 48.020116
336.78736 48.05277
336.94739 48.085361
337.10742 48.117889
337.26745 48.150354
337.42749 48.182755
337.58752 48.215093
337.74755 48.247366
337.90758 48.279576
338.06761 48.311722
338.22765 48.343804
338.38768 48.375821
338.54771 48.407774
338.70774 48.439663
338.86777 48.471486
339.02781 48.503245
339.18784 48.534939
339.34787 48.566568
339.5079 48.598131
339.66793 48.62963
339.82797 48.661062
339.988 48.692429
340.14803 48.723731
340.30806 48.754966
340.46809 48.786135
340.62813 48.817238
340.78816 48.848275
340.94819 48.879245
341.10822 48.910149
341.26825 48.940986
341.42829 48.971757
341.58832 49.00246
341.74835 49.033096
341.90838 49.063665
342.06841 49.094167
342.22845 49.124601
342.38848 49.154967
342.54851 49.185266
342.70854 49.215497
342.86857 49.24566
343.02861 49.275754
343.18864 49.305781
343.34867 49.335739
343.5087 49.365628
343.66873 49.395449
343.82877 49.425201
343.9888 49.454884
344.14883 49.484498
344.30886 49.514043
344.46889 49.543519
344.62893 49.572925
344.78896 49.602262
344.94899 49.631529
345.10902 49.660726
345.26905 49.689854
345.42909 49.718911
345.58912 49.747898
345.74915 49.776815
345.90918 49.805661
346.06921 49.834437
346.22925 49.863142
346.38928 49.891777
346.54931 49.92034
346.70934 49.948833
346.86937 49.977254
347.02941 50.005604
347.18944 50.033883
347.34947 50.06209
347.5095 50.090225
347.66953 50.118289
347.82957 50.146281
347.9896 50.1742
348.14963 50.202048
348.30966 50.229824
348.46969 50.257527
348.62973 50.285157
348.78976 50.312715
348.94979 50.3402
349.10982 50.367613
349.26985 50.394952
349.42989 50.422218
349.58992 50.449412
349.74995 50.476531
349.90998 50.503578
350.07001 50.530551
350.23005 50.55745
350.39008 50.584275
350.55011 50.611027
350.71014 50.637704
350.87017 50.664307
351.03021 50.690836
351.19024 50.717291
351.35027 50.743671
351.5103 50.769977
351.67033 50.796208
351.83037 50.822364
351.9904 50.848445
352.15043 50.874451
352.31046 50.900382
352.47049 50.926238
352.63053 50.952018
352.79056 50.977723
352.95059 51.003352
353.11062 51.028906
353.27065 51.054383
353.43069 51.079785
353.59072 51.105111
353.75075 51.13036
353.91078 51.155533
354.07081 51.18063
354.23085 51.205651
354.39088 51.230594
354.55091 51.255461
354.71094 51.280252
354.87097 51.304965
355.03101 51.329601
355.19104 51.35416
355.35107 51.378642
355.5111 51.403047
355.67113 51.427374
355.83117 51.451623
355.9912 51.475795
356.15123 51.499889
356.31126 51.523906
356.47129 51.547844
356.63133 51.571704
356.79136 51.595486
356.95139 51.619189
357.11142 51.642815
357.27145 51.666361
357.43149 51.689829
357.59152 51.713219
357.75155 51.736529
357.91158 51.759761
358.07161 51.782914
358.23165 51.805987
358.39168 51.828982
358.55171 51.851897
358.71174 51.874732
358.87177 51.897488
359.03181 51.920165
359.19184 51.942761
359.35187 51.965278
359.5119 51.987715
359.67193 52.010072
359.83197 52.032349
359.992 52.054546
360.15203 52.076662
360.31206 52.098698
360.47209 52.120653
360.63213 52.142528
360.79216 52.164322
360.95219 52.186036
361.11222 52.207668
361.27225 52.22922
361.43229 52.25069
361.59232 52.272079
361.75235 52.293387
361.91238 52.314614
362.07241 52.335759
362.23245 52.356823
362.39248 52.377805
362.55251 52.398705
362.71254 52.419524
362.87257 52.44026
363.03261 52.460915
363.19264 52.481487
363.35267 52.501978
363.5127 52.522386
363.67273 52.542711
363.83277 52.562955
363.9928 52.583115
364.15283 52.603193
364.31286 52.623189
364.47289 52.643101
364.63293 52.662931
364.79296 52.682678
364.95299 52.702341
365.11302 52.721922
365.27305 52.741419
365.43309 52.760833
365.59312 52.780163
365.75315 52.79941
365.91318 52.818573
366.07321 52.837653
366.23325 52.856649
366.39328 52.875561
366.55331 52.89439
366.71334 52.913134
366.87337 52.931794
367.03341 52.95037
367.19344 52.968862
367.35347 52.987269
367.5135 53.005592
367.67353 53.02383
367.83357 53.041984
367.9936 53.060054
368.15363 53.078038
368.31366 53.095938
368.47369 53.113753
368.63373 53.131483
368.79376 53.149128
368.95379 53.166687
369.11382 53.184162
369.27385 53.201551
369.43389 53.218855
369.59392 53.236073
369.75395 53.253206
369.91398 53.270254
370.07401 53.287215
370.23405 53.304091
370.39408 53.320881
370.55411 53.337585
370.71414 53.354204
370.87417 53.370736
371.03421 53.387182
371.19424 53.403542
371.35427 53.419816
371.5143 53.436003
371.67433 53.452104
371.83437 53.468119
371.9944 53.484047
372.15443 53.499888
372.31446 53.515643
372.47449 53.531311
372.63453 53.546892
372.79456 53.562386
372.95459 53.577794
373.11462 53.593114
373.27465 53.608347
373.43469 53.623493
373.59472 53.638552
373.75475 53.653524
373.91478 53.668408
374.07481 53.683204
374.23485 53.697914
374.39488 53.712535
374.55491 53.727069
374.71494 53.741516
374.87497 53.755874
375.03501 53.770145
375.19504 53.784328
375.35507 53.798423
375.5151 53.81243
375.67514 53.826349
375.83517 53.84018
375.9952 53.853923
376.15523 53.867577
376.31526 53.881143
376.4753 53.894621
376.63533 53.90801
376.79536 53.921311
376.95539 53.934523
377.11542 53.947647
377.27546 53.960682
377.43549 53.973628
377.59552 53.986485
377.75555 53.999254
377.91558 54.011934
378.07562 54.024524
378.23565 54.037026
378.39568 54.049439
378.55571 54.061762
378.71574 54.073997
378.87578 54.086142
379.03581 54.098198
379.19584 54.110164
379.35587 54.122042
379.5159 54.133829
379.67594 54.145528
379.83597 54.157136
379.996 54.168655
380.15603 54.180085
380.31606 54.191424
380.4761 54.202674
380.63613 54.213835
380.79616 54.224905
380.95619 54.235885
381.11622 54.246776
381.27626 54.257576
381.43629 54.268287
381.59632 54.278907
381.75635 54.289437
381.91638 54.299877
382.07642 54.310227
382.23645 54.320487
382.39648 54.330656
382.55651 54.340735
382.71654 54.350723
382.87658 54.360621
383.03661 54.370428
383.19664 54.380145
383.35667 54.389772
383.5167 54.399307
383.67674 54.408752
383.83677 54.418106
383.9968 54.42737
384.15683 54.436543
384.31686 54.445624
384.4769 54.454615
384.63693 54.463515
384.79696 54.472324
384.95699 54.481042
385.11702 54.489669
385.27706 54.498205
385.43709 54.50665
385.59712 54.515004
385.75715 54.523266
385.91718 54.531438
386.07722 54.539518
386.23725 54.547506
386.39728 54.555404
386.55731 54.563209
386.71734 54.570924
386.87738 54.578547
387.03741 54.586079
387.19744 54.593519
387.35747 54.600867
387.5175 54.608124
387.67754 54.61529
387.83757 54.622363
387.9976 54.629345
388.15763 54.636236
388.31766 54.643034
388.4777 54.649741
388.63773 54.656356
388.79776 54.662879
388.95779 54.669311
389.11782 54.67565
389.27786 54.681898
389.43789 54.688054
389.59792 54.694117
389.75795 54.700089
389.91798 54.705968
390.07802 54.711756
390.23805 54.717452
390.39808 54.723055
390.55811 54.728566
390.71814 54.733985
390.87818 54.739312
391.03821 54.744547
391.19824 54.74969
391.35827 54.75474
391.5183 54.759698
391.67834 54.764564
391.83837 54.769337
391.9984 54.774018
392.15843 54.778607
392.31846 54.783104
392.4785 54.787507
392.63853 54.791819
392.79856 54.796038
392.95859 54.800165
393.11862 54.804199
393.27866 54.808141
393.43869 54.81199
393.59872 54.815747
393.75875 54.819411
393.91878 54.822983
394.07882 54.826462
394.23885 54.829848
394.39888 54.833142
394.55891 54.836343
394.71894 54.839452
394.87898 54.842468
395.03901 54.845391
395.19904 54.848222
395.35907 54.85096
395.5191 54.853605
395.67914 54.856157
395.83917 54.858617
395.9992 54.860984
396.15923 54.863259
396.31926 54.86544
396.4793 54.867529
396.63933 54.869525
396.79936 54.871428
396.95939 54.873239
397.11942 54.874957
397.27946 54.876581
397.43949 54.878114
397.59952 54.879553
397.75955 54.880899
397.91958 54.882153
398.07962 54.883314
398.23965 54.884382
398.39968 54.885357
398.55971 54.886239
398.71974 54.887028
398.87978 54.887725
399.03981 54.888328
399.19984 54.888839
399.35987 54.889257
399.5199 54.889582
399.67994 54.889814
399.83997 54.889954
400 54.89
400.16003 54.889954
400.32006 54.889814
400.4801 54.889582
400.64013 54.889257
400.80016 54.888839
400.96019 54.888328
401.12022 54.887725
401.28026 54.887028
401.44029 54.886239
401.60032 54.885357
401.76035 54.884382
401.92038 54.883314
402.08042 54.882153
402.24045 54.880899
402.40048 54.879553
402.56051 54.878114
402.72054 54.876581
402.88058 54.874957
403.04061 54.873239
403.20064 54.871428
403.36067 54.869525
403.5207 54.867529
403.68074 54.86544
403.84077 54.863259
404.0008 54.860984
404.16083 54.858617
404.32086 54.856157
404.4809 54.853605
404.64093 54.85096
404.80096 54.848222
404.96099 54.845391
405.12102 54.842468
405.28106 54.839452
405.44109 54.836343
405.60112 54.833142
405.76115 54.829848
405.92118 54.826462
406.08122 54.822983
406.24125 54.819411
406.40128 54.815747
406.56131 54.81199
406.72134 54.808141
406.88138 54.804199
407.04141 54.800165
407.20144 54.796038
407.36147 54.791819
407.5215 54.787507
407.68154 54.783104
407.84157 54.778607
408.0016 54.774018
408.16163 54.769337
408.32166 54.764564
408.4817 54.759698
408.64173 54.75474
408.80176 54.74969
408.96179 54.744547
409.12182 54.739312
409.28186 54.733985
409.44189 54.728566
409.60192 54.723055
409.76195 54.717452
409.92198 54.711756
410.08202 54.705968
410.24205 54.700089
410.40208 54.694117
410.56211 54.688054
410.72214 54.681898
410.88218 54.67565
411.04221 54.669311
411.20224 54.662879
411.36227 54.656356
411.5223 54.649741
411.68234 54.643034
411.84237 54.636236
412.0024 54.629345
412.16243 54.622363
412.32246 54.61529
412.4825 54.608124
412.64253 54.600867
412.80256 54.593519
412.96259 54.586079
413.12262 54.578547
413.28266 54.570924
413.44269 54.563209
413.60272 54.555404
413.76275 54.547506
413.92278 54.539518
414.08282 54.531438
414.24285 54.523266
414.40288 54.515004
414.56291 54.50665
414.72294 54.498205
414.88298 54.489669
415.04301 54.481042
415.20304 54.472324
415.36307 54.463515
415.5231 54.454615
415.68314 54.445624
415.84317 54.436543
416.0032 54.42737
416.16323 54.418106
416.32326 54.408752
416.4833 54.399307
416.64333 54.389772
416.80336 54.380145
416.96339 54.370428
417.12342 54.360621
417.28346 54.350723
417.44349 54.340735
417.60352 54.330656
417.76355 54.320487
417.92358 54.310227
418.08362 54.299877
418.24365 54.289437
418.40368 54.278907
418.56371 54.268287
418.72374 54.257576
418.88378 54.246776
419.04381 54.235885
419.20384 54.224905
419.36387 54.213835
419.5239 54.202674
419.68394 54.191424
419.84397 54.180085
420.004 54.168655
420.16403 54.157136
420.32406 54.145528
420.4841 54.133829
420.64413 54.122042
420.80416 54.110164
420.96419 54.098198
421.12422 54.086142
421.28426 54.073997
421.44429 54.061762
421.60432 54.049439
421.76435 54.037026
421.92438 54.024524
422.08442 54.011934
422.24445 53.999254
422.40448 53.986485
422.56451 53.973628
422.72454 53.960682
422.88458 53.947647
423.04461 53.934523
423.20464 53.921311
423.36467 53.90801
423.5247 53.894621
423.68474 53.881143
423.84477 53.867577
424.0048 53.853923
424.16483 53.84018
424.32486 53.826349
424.4849 53.81243
424.64493 53.798423
424.80496 53.784328
424.96499 53.770145
425.12503 53.755874
425.28506 53.741516
425.44509 53.727069
425.60512 53.712535
425.76515 53.697914
425.92519 53.683204
426.08522 53.668408
426.24525 53.653524
426.40528 53.638552
426.56531 53.623493
426.72535 53.608347
426.88538 53.593114
427.04541 53.577794
427.20544 53.562386
427.36547 53.546892
427.52551 53.531311
427.68554 53.515643
427.84557 53.499888
428.0056 53.484047
428.16563 53.468119
428.32567 53.452104
428.4857 53.436003
428.64573 53.419816
428.80576 53.403542
428.96579 53.387182
429.12583 53.370736
429.28586 53.354204
429.44589 53.337585
429.60592 53.320881
429.76595 53.304091
429.92599 53.287215
430.08602 53.270254
430.24605 53.253206
430.40608 53.236073
430.56611 53.218855
430.72615 53.201551
430.88618 53.184162
431.04621 53.166687
431.20624 53.149128
431.36627 53.131483
431.52631 53.113753
431.68634 53.095938
431.84637 53.078038
432.0064 53.060054
432.16643 53.041984
432.32647 53.02383
432.4865 53.005592
432.64653 52.987269
432.80656 52.968862
432.96659 52.95037
433.12663 52.931794
433.28666 52.913134
433.44669 52.89439
433.60672 52.875561
433.76675 52.856649
433.92679 52.837653
434.08682 52.818573
434.24685 52.79941
434.40688 52.780163
434.56691 52.760833
434.72695 52.741419
434.88698 52.721922
435.04701 52.702341
435.20704 52.682678
435.36707 52.662931
435.52711 52.643101
435.68714 52.623189
435.84717 52.603193
436.0072 52.583115
436.16723 52.562955
436.32727 52.542711
436.4873 52.522386
436.64733 52.501978
436.80736 52.481487
436.96739 52.460915
437.12743 52.44026
437.28746 52.419524
437.44749 52.398705
437.60752 52.377805
437.76755 52.356823
437.92759 52.335759
438.08762 52.314614
438.24765 52.293387
438.40768 52.272079
438.56771 52.25069
438.72775 52.22922
438.88778 52.207668
439.04781 52.186036
439.20784 52.164322
439.36787 52.142528
439.52791 52.120653
439.68794 52.098698
439.84797 52.076662
440.008 52.054546
440.16803 52.032349
440.32807 52.010072
440.4881 51.987715
440.64813 51.965278
440.80816 51.942761
440.96819 51.920165
441.12823 51.897488
441.28826 51.874732
441.44829 51.851897
441.60832 51.828982
441.76835 51.805987
441.92839 51.782914
442.08842 51.759761
442.24845 51.736529
442.40848 51.713219
442.56851 51.689829
442.72855 51.666361
442.88858 51.642815
443.04861 51.619189
443.20864 51.595486
443.36867 51.571704
443.52871 51.547844
443.68874 51.523906
443.84877 51.499889
444.0088 51.475795
444.16883 51.451623
444.32887 51.427374
444.4889 51.403047
444.64893 51.378642
444.80896 51.35416
444.96899 51.329601
445.12903 51.304965
445.28906 51.280252
445.44909 51.255461
445.60912 51.230594
445.76915 51.205651
445.92919 51.18063
446.08922 51.155533
446.24925 51.13036
446.40928 51.105111
446.56931 51.079785
446.72935 51.054383
446.88938 51.028906
447.04941 51.003352
447.20944 50.977723
447.36947 50.952018
447.52951 50.926238
447.68954 50.900382
447.84957 50.874451
448.0096 50.848445
448.16963 50.822364
448.32967 50.796208
448.4897 50.769977
448.64973 50.743671
448.80976 50.717291
448.96979 50.690836
449.12983 50.664307
449.28986 50.637704
449.44989 50.611027
449.60992 50.584275
449.76995 50.55745
449.92999 50.530551
450.09002 50.503578
450.25005 50.476531
450.41008 50.449412
450.57011 50.422218
450.73015 50.394952
450.89018 50.367613
451.05021 50.3402
451.21024 50.312715
451.37027 50.285157
451.53031 50.257527
451.69034 50.229824
451.85037 50.202048
452.0104 50.1742
452.17043 50.146281
452.33047 50.118289
452.4905 50.090225
452.65053 50.06209
452.81056 50.033883
452.97059 50.005604
453.13063 49.977254
453.29066 49.948833
453.45069 49.92034
453.61072 49.891777
453.77075 49.863142
453.93079 49.834437
454.09082 49.805661
454.25085 49.776815
454.41088 49.747898
454.57091 49.718911
454.73095 49.689854
454.89098 49.660726
455.05101 49.631529
455.21104 49.602262
455.37107 49.572925
455.53111 49.543519
455.69114 49.514043
455.85117 49.484498
456.0112 49.454884
456.17123 49.425201
456.33127 49.395449
456.4913 49.365628
456.65133 49.335739
456.81136 49.305781
456.97139 49.275754
457.13143 49.24566
457.29146 49.215497
457.45149 49.185266
457.61152 49.154967
457.77155 49.124601
457.93159 49.094167
458.09162 49.063665
458.25165 49.033096
458.41168 49.00246
458.57171 48.971757
458.73175 48.940986
458.89178 48.910149
459.05181 48.879245
459.21184 48.848275
459.37187 48.817238
459.53191 48.786135
459.69194 48.754966
459.85197 48.723731
460.012 48.692429
460.17203 48.661062
460.33207 48.62963
460.4921 48.598131
460.65213 48.566568
460.81216 48.534939
460.97219 48.503245
461.13223 48.471486
461.29226 48.439663
461.45229 48.407774
461.61232 48.375821
461.77235 48.343804
461.93239 48.311722
462.09242 48.279576
462.25245 48.247366
462.41248 48.215093
462.57251 48.182755
462.73255 48.150354
462.89258 48.117889
463.05261 48.085361
463.21264 48.05277
463.37267 48.020116
463.53271 47.987399
463.69274 47.954619
463.85277 47.921776
464.0128 47.888871
464.17283 47.855904
464.33287 47.822874
464.4929 47.789782
464.65293 47.756629
464.81296 47.723413
464.97299 47.690136
465.13303 47.656797
465.29306 47.623397
465.45309 47.589936
465.61312 47.556413
465.77315 47.52283
465.93319 47.489186
466.09322 47.455481
466.25325 47.421715
466.41328 47.387889
466.57331 47.354003
466.73335 47.320057
466.89338 47.286051
467.05341 47.251985
467.21344 47.217859
467.37347 47.183674
467.53351 47.149429
467.69354 47.115125
467.85357 47.080762
468.0136 47.04634
468.17363 47.011859
468.33367 46.97732
468.4937 46.942722
468.65373 46.908066
468.81376 46.873351
468.97379 46.838578
469.13383 46.803747
469.29386 46.768859
469.45389 46.733913
469.61392 46.698909
469.77395 46.663848
469.93399 46.62873
470.09402 46.593554
470.25405 46.558322
470.41408 46.523033
470.57411 46.487687
470.73415 46.452285
470.89418 46.416827
471.05421 46.381312
471.21424 46.345741
471.37427 46.310115
471.53431 46.274432
471.69434 46.238694
471.85437 46.202901
472.0144 46.167052
472.17443 46.131148
472.33447 46.095189
472.4945 46.059176
472.65453 46.023107
472.81456 45.986984
472.97459 45.950807
473.13463 45.914575
473.29466 45.878289
473.45469 45.84195
473.61472 45.805556
473.77475 45.769109
473.93479 45.732609
474.09482 45.696055
474.25485 45.659447
474.41488 45.622787
474.57491 45.586074
474.73495 45.549308
474.89498 45.51249
475.05501 45.475619
475.21504 45.438695
475.37508 45.40172
475.53511 45.364693
475.69514 45.327614
475.85517 45.290483
476.0152 45.253301
476.17524 45.216067
476.33527 45.178782
476.4953 45.141446
476.65533 45.104059
476.81536 45.066621
476.9754 45.029133
477.13543 44.991594
477.29546 44.954005
477.45549 44.916366
477.61552 44.878677
477.77556 44.840938
477.93559 44.803149
478.09562 44.765311
478.25565 44.727424
478.41568 44.689487
478.57572 44.651501
478.73575 44.613467
478.89578 44.575383
479.05581 44.537251
479.21584 44.499071
479.37588 44.460842
479.53591 44.422565
479.69594 44.38424
479.85597 44.345868
480.016 44.307447
480.17604 44.26898
480.33607 44.230464
480.4961 44.191902
480.65613 44.153293
480.81616 44.114637
480.9762 44.075934
481.13623 44.037184
481.29626 43.998388
481.45629 43.959546
481.61632 43.920658
481.77636 43.881724
481.93639 43.842744
482.09642 43.803719
482.25645 43.764648
482.41648 43.725532
482.57652 43.68637
482.73655 43.647164
482.89658 43.607913
483.05661 43.568617
483.21664 43.529277
483.37668 43.489892
483.53671 43.450464
483.69674 43.410991
483.85677 43.371474
484.0168 43.331914
484.17684 43.29231
484.33687 43.252663
484.4969 43.212972
484.65693 43.173239
484.81696 43.133462
484.977 43.093643
485.13703 43.053781
485.29706 43.013877
485.45709 42.973931
485.61712 42.933942
485.77716 42.893912
485.93719 42.853839
486.09722 42.813725
486.25725 42.77357
486.41728 42.733373
486.57732 42.693136
486.73735 42.652857
486.89738 42.612537
487.05741 42.572177
487.21744 42.531776
487.37748 42.491335
487.53751 42.450854
487.69754 42.410333
487.85757 42.369772
488.0176 42.329171
488.17764 42.288531
488.33767 42.247851
488.4977 42.207133
488.65773 42.166375
488.81776 42.125578
488.9778 42.084743
489.13783 42.043869
489.29786 42.002956
489.45789 41.962006
489.61792 41.921017
489.77796 41.879991
489.93799 41.838926
490.09802 41.797825
490.25805 41.756685
490.41808 41.715509
490.57812 41.674295
490.73815 41.633045
490.89818 41.591758
491.05821 41.550434
491.21824 41.509074
491.37828 41.467677
491.53831 41.426244
491.69834 41.384776
491.85837 41.343271
492.0184 41.301732
492.17844 41.260156
492.33847 41.218545
492.4985 41.1769
492.65853 41.135219
492.81856 41.093503
492.9786 41.051753
493.13863 41.009968
493.29866 40.968149
493.45869 40.926296
493.61872 40.884409
493.77876 40.842488
493.93879 40.800534
494.09882 40.758546
494.25885 40.716524
494.41888 40.67447
494.57892 40.632382
494.73895 40.590262
494.89898 40.548109
495.05901 40.505924
495.21904 40.463706
495.37908 40.421456
495.53911 40.379174
495.69914 40.33686
495.85917 40.294514
496.0192 40.252137
496.17924 40.209729
496.33927 40.16729
496.4993 40.124819
496.65933 40.082318
496.81936 40.039785
496.9794 39.997223
497.13943 39.95463
497.29946 39.912007
497.45949 39.869354
497.61952 39.82667
497.77956 39.783958
497.93959 39.741215
498.09962 39.698444
498.25965 39.655643
498.41968 39.612813
498.57972 39.569954
498.73975 39.527067
498.89978 39.484151
499.05981 39.441206
499.21984 39.398234
499.37988 39.355233
499.53991 39.312205
499.69994 39.269148
499.85997 39.226064
500.02 39.182953
500.18004 39.139815
500.34007 39.096649
500.5001 39.053457
500.66013 39.010238
500.82016 38.966992
500.9802 38.92372
501.14023 38.880422
501.30026 38.837098
501.46029 38.793747
501.62032 38.750371
501.78036 38.70697
501.94039 38.663543
502.10042 38.620091
502.26045 38.576613
502.42048 38.533111
502.58052 38.489584
502.74055 38.446033
502.90058 38.402457
503.06061 38.358857
503.22064 38.315232
503.38068 38.271584
503.54071 38.227912
503.70074 38.184217
503.86077 38.140498
504.0208 38.096755
504.18084 38.05299
504.34087 38.009202
504.5009 37.965391
504.66093 37.921557
504.82096 37.877701
504.981 37.833823
505.14103 37.789922
505.30106 37.746
505.46109 37.702056
505.62112 37.65809
505.78116 37.614103
505.94119 37.570094
506.10122 37.526065
506.26125 37.482014
506.42128 37.437943
506.58132 37.393851
506.74135 37.349739
506.90138 37.305606
507.06141 37.261453
507.22144 37.21728
507.38148 37.173088
507.54151 37.128875
507.70154 37.084644
507.86157 37.040393
508.0216 36.996122
508.18164 36.951833
508.34167 36.907525
508.5017 36.863199
508.66173 36.818854
508.82176 36.77449
508.9818 36.730109
509.14183 36.685709
509.30186 36.641292
509.46189 36.596857
509.62192 36.552404
509.78196 36.507934
509.94199 36.463447
510.10202 36.418943
510.26205 36.374422
510.42208 36.329884
510.58212 36.28533
510.74215 36.24076
510.90218 36.196173
511.06221 36.15157
511.22224 36.106951
511.38228 36.062317
511.54231 36.017667
511.70234 35.973002
511.86237 35.928322
512.0224 35.883626
512.18244 35.838916
512.34247 35.794191
512.5025 35.749451
512.66253 35.704697
512.82256 35.659928
512.9826 35.615146
513.14263 35.57035
513.30266 35.52554
513.46269 35.480716
513.62272 35.435879
513.78276 35.391029
513.94279 35.346165
514.10282 35.301289
514.26285 35.2564
514.42288 35.211498
514.58292 35.166584
514.74295 35.121657
514.90298 35.076718
515.06301 35.031768
515.22304 34.986805
515.38308 34.941831
515.54311 34.896846
515.70314 34.851849
515.86317 34.806841
516.0232 34.761822
516.18324 34.716792
516.34327 34.671751
516.5033 34.6267
516.66333 34.581639
516.82336 34.536567
516.9834 34.491486
517.14343 34.446394
517.30346 34.401293
517.46349 34.356182
517.62352 34.311062
517.78356 34.265932
517.94359 34.220794
518.10362 34.175646
518.26365 34.13049
518.42368 34.085325
518.58372 34.040152
518.74375 33.994971
518.90378 33.949781
519.06381 33.904583
519.22384 33.859378
519.38388 33.814165
519.54391 33.768945
519.70394 33.723717
519.86397 33.678482
520.024 33.63324
520.18404 33.587991
520.34407 33.542736
520.5041 33.497474
520.66413 33.452205
520.82416 33.406931
520.9842 33.36165
521.14423 33.316363
521.30426 33.271071
521.46429 33.225773
521.62432 33.18047
521.78436 33.135161
521.94439 33.089848
522.10442 33.044529
522.26445 32.999205
522.42448 32.953877
522.58452 32.908545
522.74455 32.863208
522.90458 32.817867
523.06461 32.772522
523.22464 32.727173
523.38468 32.68182
523.54471 32.636464
523.70474 32.591105
523.86477 32.545742
524.0248 32.500376
524.18484 32.455007
524.34487 32.409636
524.5049 32.364262
524.66493 32.318885
524.82496 32.273506
524.985 32.228125
525.14503 32.182742
525.30506 32.137358
525.46509 32.091971
525.62513 32.046583
525.78516 32.001194
525.94519 31.955803
526.10522 31.910411
526.26525 31.865019
526.42529 31.819625
526.58532 31.774231
526.74535 31.728837
526.90538 31.683442
527.06541 31.638047
527.22545 31.592653
527.38548 31.547258
527.54551 31.501864
527.70554 31.45647
527.86557 31.411077
528.02561 31.365684
528.18564 31.320293
528.34567 31.274902
528.5057 31.229513
528.66573 31.184125
528.82577 31.138739
528.9858 31.093354
529.14583 31.047971
529.30586 31.00259
529.46589 30.957212
529.62593 30.911835
529.78596 30.866461
529.94599 30.82109
530.10602 30.775721
530.26605 30.730356
530.42609 30.684993
530.58612 30.639633
530.74615 30.594277
530.90618 30.548924
531.06621 30.503575
531.22625 30.45823
531.38628 30.412889
531.54631 30.367552
531.70634 30.322218
531.86637 30.27689
532.02641 30.231566
532.18644 30.186246
532.34647 30.140932
532.5065 30.095622
532.66653 30.050318
532.82657 30.005018
532.9866 29.959724
533.14663 29.914436
533.30666 29.869154
533.46669 29.823877
533.62673 29.778606
533.78676 29.733342
533.94679 29.688083
534.10682 29.642831
534.26685 29.597586
534.42689 29.552348
534.58692 29.507116
534.74695 29.461891
534.90698 29.416674
535.06701 29.371464
535.22705 29.326261
535.38708 29.281066
535.54711 29.235879
535.70714 29.190699
535.86717 29.145528
536.02721 29.100365
536.18724 29.05521
536.34727 29.010063
536.5073 28.964925
536.66733 28.919796
536.82737 28.874676
536.9874 28.829565
537.14743 28.784463
537.30746 28.73937
537.46749 28.694287
537.62753 28.649213
537.78756 28.604149
537.94759 28.559095
538.10762 28.514051
538.26765 28.469018
538.42769 28.423994
538.58772 28.378981
538.74775 28.333979
538.90778 28.288987
539.06781 28.244006
539.22785 28.199036
539.38788 28.154078
539.54791 28.10913
539.70794 28.064194
539.86797 28.01927
540.02801 27.974357
540.18804 27.929456
540.34807 27.884567
540.5081 27.839691
540.66813 27.794826
540.82817 27.749974
540.9882 27.705135
541.14823 27.660308
541.30826 27.615494
541.46829 27.570693
541.62833 27.525905
541.78836 27.48113
541.94839 27.436368
542.10842 27.39162
542.26845 27.346886
542.42849 27.302165
542.58852 27.257459
542.74855 27.212766
542.90858 27.168088
543.06861 27.123424
543.22865 27.078774
543.38868 27.034139
543.54871 26.989518
543.70874 26.944913
543.86877 26.900322
544.02881 26.855747
544.18884 26.811186
544.34887 26.766642
544.5089 26.722112
544.66893 26.677598
544.82897 26.6331
544.989 26.588618
545.14903 26.544152
545.30906 26.499703
545.46909 26.455269
545.62913 26.410852
545.78916 26.366451
545.94919 26.322068
546.10922 26.277701
546.26925 26.23335
546.42929 26.189017
546.58932 26.144702
546.74935 26.100403
546.90938 26.056122
547.06941 26.011859
547.22945 25.967613
547.38948 25.923386
547.54951 25.879176
547.70954 25.834984
547.86957 25.790811
548.02961 25.746656
548.18964 25.702519
548.34967 25.658401
548.5097 25.614302
548.66973 25.570222
548.82977 25.526161
548.9898 25.482119
549.14983 25.438096
549.30986 25.394092
549.46989 25.350108
549.62993 25.306144
549.78996 25.2622
549.94999 25.218275
550.11002 25.17437
550.27005 25.130486
550.43009 25.086622
550.59012 25.042778
550.75015 24.998954
550.91018 24.955152
551.07021 24.91137
551.23025 24.867609
551.39028 24.823868
551.55031 24.78015
551.71034 24.736452
551.87037 24.692775
552.03041 24.649121
552.19044 24.605487
552.35047 24.561876
552.5105 24.518286
552.67053 24.474719
552.83057 24.431173
552.9906 24.38765
553.15063 24.344149
553.31066 24.30067
553.47069 24.257214
553.63073 24.213781
553.79076 24.17037
553.95079 24.126983
554.11082 24.083618
554.27085 24.040277
554.43089 23.996959
554.59092 23.953664
554.75095 23.910393
554.91098 23.867146
555.07101 23.823922
555.23105 23.780722
555.39108 23.737546
555.55111 23.694394
555.71114 23.651267
555.87117 23.608164
556.03121 23.565085
556.19124 23.522031
556.35127 23.479001
556.5113 23.435996
556.67133 23.393017
556.83137 23.350062
556.9914 23.307132
557.15143 23.264228
557.31146 23.221349
557.47149 23.178495
557.63153 23.135667
557.79156 23.092865
557.95159 23.050088
558.11162 23.007338
558.27165 22.964613
558.43169 22.921915
558.59172 22.879243
558.75175 22.836597
558.91178 22.793978
559.07181 22.751385
559.23185 22.70882
559.39188 22.66628
559.55191 22.623768
559.71194 22.581283
559.87197 22.538825
560.03201 22.496394
560.19204 22.453991
560.35207 22.411615
560.5121 22.369267
560.67213 22.326946
560.83217 22.284653
560.9922 22.242388
561.15223 22.200151
561.31226 22.157942
561.47229 22.115761
561.63233 22.073609
561.79236 22.031485
561.95239 21.98939
562.11242 21.947323
562.27245 21.905285
562.43249 21.863276
562.59252 21.821295
562.75255 21.779344
562.91258 21.737422
563.07261 21.695529
563.23265 21.653666
563.39268 21.611832
563.55271 21.570028
563.71274 21.528253
563.87277 21.486508
564.03281 21.444793
564.19284 21.403108
564.35287 21.361453
564.5129 21.319828
564.67293 21.278233
564.83297 21.236669
564.993 21.195136
565.15303 21.153633
565.31306 21.11216
565.47309 21.070718
565.63313 21.029308
565.79316 20.987928
565.95319 20.946579
566.11322 20.905262
566.27325 20.863975
566.43329 20.82272
566.59332 20.781497
566.75335 20.740305
566.91338 20.699145
567.07341 20.658016
567.23345 20.61692
567.39348 20.575855
567.55351 20.534823
567.71354 20.493822
567.87357 20.452854
568.03361 20.411918
568.19364 20.371014
568.35367 20.330143
568.5137 20.289305
568.67373 20.248499
568.83377 20.207726
568.9938 20.166986
569.15383 20.126279
569.31386 20.085605
569.47389 20.044965
569.63393 20.004357
569.79396 19.963783
569.95399 19.923242
570.11402 19.882735
570.27405 19.842261
570.43409 19.801822
570.59412 19.761415
570.75415 19.721043
570.91418 19.680705
571.07421 19.640401
571.23425 19.600131
571.39428 19.559895
571.55431 19.519694
571.71434 19.479527
571.87437 19.439394
572.03441 19.399297
572.19444 19.359233
572.35447 19.319205
572.5145 19.279211
572.67453 19.239253
572.83457 19.199329
572.9946 19.159441
573.15463 19.119587
573.31466 19.079769
573.47469 19.039987
573.63473 19.00024
573.79476 18.960528
573.95479 18.920852
574.11482 18.881212
574.27485 18.841607
574.43489 18.802039
574.59492 18.762506
574.75495 18.723009
574.91498 18.683549
575.07502 18.644124
575.23505 18.604736
575.39508 18.565385
575.55511 18.526069
575.71514 18.486791
575.87518 18.447549
576.03521 18.408343
576.19524 18.369174
576.35527 18.330043
576.5153 18.290948
576.67534 18.25189
576.83537 18.212869
576.9954 18.173885
577.15543 18.134939
577.31546 18.09603
577.4755 18.057158
577.63553 18.018324
577.79556 17.979527
577.95559 17.940768
578.11562 17.902046
578.27566 17.863363
578.43569 17.824717
578.59572 17.786109
578.75575 17.747539
578.91578 17.709007
579.07582 17.670514
579.23585 17.632058
579.39588 17.593641
579.55591 17.555262
579.71594 17.516922
579.87598 17.47862
580.03601 17.440357
580.19604 17.402132
580.35607 17.363946
580.5161 17.325799
580.67614 17.287691
580.83617 17.249621
580.9962 17.211591
581.15623 17.1736
581.31626 17.135648
581.4763 17.097735
581.63633 17.059861
581.79636 17.022027
581.95639 16.984232
582.11642 16.946477
582.27646 16.908761
582.43649 16.871085
582.59652 16.833449
582.75655 16.795852
582.91658 16.758295
583.07662 16.720779
583.23665 16.683302
583.39668 16.645865
583.55671 16.608468
583.71674 16.571111
583.87678 16.533795
584.03681 16.496519
584.19684 16.459283
584.35687 16.422088
584.5169 16.384933
584.67694 16.347818
584.83697 16.310745
584.997 16.273712
585.15703 16.236719
585.31706 16.199768
585.4771 16.162857
585.63713 16.125987
585.79716 16.089159
585.95719 16.052371
586.11722 16.015624
586.27726 15.978919
586.43729 15.942255
586.59732 15.905632
586.75735 15.86905
586.91738 15.83251
587.07742 15.796011
587.23745 15.759554
587.39748 15.723138
587.55751 15.686764
587.71754 15.650432
587.87758 15.614142
588.03761 15.577893
588.19764 15.541686
588.35767 15.505521
588.5177 15.469398
588.67774 15.433317
588.83777 15.397278
588.9978 15.361282
589.15783 15.325327
589.31786 15.289415
589.4779 15.253545
589.63793 15.217718
589.79796 15.181932
589.95799 15.14619
590.11802 15.11049
590.27806 15.074832
590.43809 15.039217
590.59812 15.003645
590.75815 14.968115
590.91818 14.932629
591.07822 14.897185
591.23825 14.861784
591.39828 14.826426
591.55831 14.791111
591.71834 14.755838
591.87838 14.72061
592.03841 14.685424
592.19844 14.650281
592.35847 14.615182
592.5185 14.580126
592.67854 14.545113
592.83857 14.510143
592.9986 14.475217
593.15863 14.440335
593.31866 14.405496
593.4787 14.370701
593.63873 14.335949
593.79876 14.301241
593.95879 14.266576
594.11882 14.231956
594.27886 14.197379
594.43889 14.162846
594.59892 14.128357
594.75895 14.093911
594.91898 14.05951
595.07902 14.025153
595.23905 13.99084
595.39908 13.956571
595.55911 13.922346
595.71914 13.888165
595.87918 13.854029
596.03921 13.819937
596.19924 13.785889
596.35927 13.751886
596.5193 13.717926
596.67934 13.684012
596.83937 13.650142
596.9994 13.616316
597.15943 13.582535
597.31946 13.548798
597.4795 13.515107
597.63953 13.48146
597.79956 13.447857
597.95959 13.414299
598.11962 13.380787
598.27966 13.347319
598.43969 13.313895
598.59972 13.280517
598.75975 13.247184
598.91978 13.213895
599.07982 13.180652
599.23985 13.147454
599.39988 13.114301
599.55991 13.081193
599.71994 13.04813
599.87998 13.015112
600.04001 12.98214
600.20004 12.949212
600.36007 12.91633
600.5201 12.883494
600.68014 12.850703
600.84017 12.817957
601.0002 12.785257
601.16023 12.752602
601.32026 12.719992
601.4803 12.687428
601.64033 12.65491
601.80036 12.622437
601.96039 12.59001
602.12042 12.557629
602.28046 12.525293
602.44049 12.493003
602.60052 12.460758
602.76055 12.42856
602.92058 12.396407
603.08062 12.3643
603.24065 12.332239
603.40068 12.300224
603.56071 12.268254
603.72074 12.236331
603.88078 12.204454
604.04081 12.172622
604.20084 12.140837
604.36087 12.109098
604.5209 12.077404
604.68094 12.045757
604.84097 12.014156
605.001 11.982601
605.16103 11.951093
605.32106 11.91963
605.4811 11.888214
605.64113 11.856844
605.80116 11.82552
605.96119 11.794243
606.12122 11.763012
606.28126 11.731827
606.44129 11.700689
606.60132 11.669597
606.76135 11.638551
606.92138 11.607552
607.08142 11.576599
607.24145 11.545693
607.40148 11.514833
607.56151 11.48402
607.72154 11.453253
607.88158 11.422533
608.04161 11.39186
608.20164 11.361233
608.36167 11.330653
608.5217 11.300119
608.68174 11.269632
608.84177 11.239192
609.0018 11.208798
609.16183 11.178451
609.32186 11.148151
609.4819 11.117898
609.64193 11.087691
609.80196 11.057531
609.96199 11.027418
610.12202 10.997352
610.28206 10.967332
610.44209 10.93736
610.60212 10.907434
610.76215 10.877555
610.92218 10.847723
611.08222 10.817938
611.24225 10.7882
611.40228 10.758509
611.56231 10.728865
611.72234 10.699268
611.88238 10.669718
612.04241 10.640214
612.20244 10.610758
612.36247 10.581349
612.5225 10.551987
612.68254 10.522671
612.84257 10.493403
613.0026 10.464182
613.16263 10.435008
613.32266 10.405881
613.4827 10.376801
613.64273 10.347769
613.80276 10.318783
613.96279 10.289845
614.12282 10.260953
614.28286 10.232109
614.44289 10.203312
614.60292 10.174562
614.76295 10.14586
614.92298 10.117204
615.08302 10.088596
615.24305 10.060035
615.40308 10.031521
615.56311 10.003054
615.72314 9.9746346
615.88318 9.9462624
616.04321 9.9179373
616.20324 9.8896595
616.36327 9.8614289
616.5233 9.8332456
616.68334 9.8051096
616.84337 9.7770208
617.0034 9.7489792
617.16343 9.7209849
617.32346 9.6930379
617.4835 9.6651382
617.64353 9.6372858
617.80356 9.6094806
617.96359 9.5817227
618.12362 9.5540121
618.28366 9.5263488
618.44369 9.4987328
618.60372 9.4711641
618.76375 9.4436426
618.92378 9.4161685
619.08382 9.3887417
619.24385 9.3613622
619.40388 9.3340299
619.56391 9.306745
619.72394 9.2795074
619.88398 9.2523171
620.04401 9.2251741
620.20404 9.1980784
620.36407 9.17103
620.5241 9.1440289
620.68414 9.1170751
620.84417 9.0901686
621.0042 9.0633094
621.16423 9.0364974
621.32426 9.0097328
621.4843 8.9830155
621.64433 8.9563454
621.80436 8.9297227
621.96439 8.9031472
622.12442 8.876619
622.28446 8.8501381
622.44449 8.8237044
622.60452 8.797318
622.76455 8.7709789
622.92458 8.744687
623.08462 8.7184424
623.24465 8.6922451
623.40468 8.6660949
623.56471 8.639992
623.72474 8.6139364
623.88478 8.587928
624.04481 8.5619667
624.20484 8.5360527
624.36487 8.5101859
624.5249 8.4843663
624.68494 8.4585939
624.84497 8.4328687
625.005 8.4071906
625.16503 8.3815598
625.32507 8.355976
625.4851 8.3304394
625.64513 8.30495
625.80516 8.2795077
625.96519 8.2541125
626.12523 8.2287645
626.28526 8.2034635
626.44529 8.1782096
626.60532 8.1530029
626.76535 8.1278432
626.92539 8.1027305
627.08542 8.0776649
627.24545 8.0526464
627.40548 8.0276749
627.56551 8.0027504
627.72555 7.9778729
627.88558 7.9530424
628.04561 7.9282588
628.20564 7.9035223
628.36567 7.8788327
628.52571 7.8541901
628.68574 7.8295944
628.84577 7.8050456
629.0058 7.7805437
629.16583 7.7560887
629.32587 7.7316806
629.4859 7.7073193
629.64593 7.6830049
629.80596 7.6587374
629.96599 7.6345166
630.12603 7.6103427
630.28606 7.5862155
630.44609 7.5621351
630.60612 7.5381015
630.76615 7.5141146
630.92619 7.4901744
631.08622 7.466281
631.24625 7.4424342
631.40628 7.4186342
631.56631 7.3948807
631.72635 7.3711739
631.88638 7.3475138
632.04641 7.3239002
632.20644 7.3003333
632.36647 7.2768129
632.52651 7.253339
632.68654 7.2299117
632.84657 7.2065309
633.0066 7.1831966
633.16663 7.1599088
633.32667 7.1366674
633.4867 7.1134724
633.64673 7.0903239
633.80676 7.0672218
633.96679 7.0441661
634.12683 7.0211567
634.28686 6.9981936
634.44689 6.9752769
634.60692 6.9524064
634.76695 6.9295823
634.92699 6.9068043
635.08702 6.8840726
635.24705 6.8613871
635.40708 6.8387478
635.56711 6.8161547
635.72715 6.7936077
635.88718 6.7711068
636.04721 6.7486521
636.20724 6.7262433
636.36727 6.7038807
636.52731 6.681564
636.68734 6.6592934
636.84737 6.6370687
637.0074 6.61489
637.16743 6.5927573
637.32747 6.5706704
637.4875 6.5486294
637.64753 6.5266343
637.80756 6.504685
637.96759 6.4827815
638.12763 6.4609238
638.28766 6.4391118
638.44769 6.4173456
638.60772 6.395625
638.76775 6.3739502
638.92779 6.352321
639.08782 6.3307374
639.24785 6.3091994
639.40788 6.287707
639.56791 6.2662601
639.72795 6.2448588
639.88798 6.2235029
640.04801 6.2021925
640.20804 6.1809275
640.36807 6.1597079
640.52811 6.1385337
640.68814 6.1174049
640.84817 6.0963214
641.0082 6.0752831
641.16823 6.0542902
641.32827 6.0333424
641.4883 6.0124399
641.64833 5.9915825
641.80836 5.9707703
641.96839 5.9500032
642.12843 5.9292812
642.28846 5.9086042
642.44849 5.8879723
642.60852 5.8673853
642.76855 5.8468434
642.92859 5.8263463
643.08862 5.8058942
643.24865 5.7854869
643.40868 5.7651245
643.56871 5.7448068
643.72875 5.724534
643.88878 5.7043059
644.04881 5.6841225
644.20884 5.6639838
644.36887 5.6438897
644.52891 5.6238402
644.68894 5.6038354
644.84897 5.583875
645.009 5.5639592
645.16903 5.5440879
645.32907 5.5242611
645.4891 5.5044786
645.64913 5.4847405
645.80916 5.4650468
645.96919 5.4453974
646.12923 5.4257923
646.28926 5.4062314
646.44929 5.3867147
646.60932 5.3672422
646.76935 5.3478139
646.92939 5.3284297
647.08942 5.3090895
647.24945 5.2897934
647.40948 5.2705413
647.56951 5.2513331
647.72955 5.2321689
647.88958 5.2130486
648.04961 5.1939721
648.20964 5.1749395
648.36967 5.1559506
648.52971 5.1370055
648.68974 5.1181041
648.84977 5.0992464
649.0098 5.0804323
649.16983 5.0616619
649.32987 5.042935
649.4899 5.0242516
649.64993 5.0056117
649.80996 4.9870153
649.96999 4.9684623
650.13003 4.9499527
650.29006 4.9314864
650.45009 4.9130634
650.61012 4.8946837
650.77015 4.8763472
650.93019 4.858054
651.09022 4.8398038
651.25025 4.8215968
651.41028 4.8034328
651.57031 4.7853119
651.73035 4.7672339
651.89038 4.749199
652.05041 4.7312069
652.21044 4.7132577
652.37047 4.6953514
652.53051 4.6774878
652.69054 4.659667
652.85057 4.6418889
653.0106 4.6241535
653.17063 4.6064607
653.33067 4.5888105
653.4907 4.5712029
653.65073 4.5536378
653.81076 4.5361152
653.97079 4.518635
654.13083 4.5011971
654.29086 4.4838017
654.45089 4.4664485
654.61092 4.4491376
654.77095 4.4318689
654.93099 4.4146425
655.09102 4.3974581
655.25105 4.3803159
655.41108 4.3632157
655.57111 4.3461575
655.73115 4.3291413
655.89118 4.3121671
656.05121 4.2952347
656.21124 4.2783441
656.37127 4.2614954
656.53131 4.2446884
656.69134 4.2279232
656.85137 4.2111996
657.0114 4.1945177
657.17143 4.1778773
657.33147 4.1612785
657.4915 4.1447212
657.65153 4.1282053
657.81156 4.1117309
657.97159 4.0952978
658.13163 4.0789061
658.29166 4.0625556
658.45169 4.0462464
658.61172 4.0299783
658.77175 4.0137514
658.93179 3.9975657
659.09182 3.9814209
659.25185 3.9653172
659.41188 3.9492545
659.57191 3.9332327
659.73195 3.9172517
659.89198 3.9013117
660.05201 3.8854124
660.21204 3.8695538
660.37207 3.8537359
660.53211 3.8379587
660.69214 3.8222221
660.85217 3.8065261
661.0122 3.7908706
661.17223 3.7752556
661.33227 3.759681
661.4923 3.7441467
661.65233 3.7286528
661.81236 3.7131992
661.97239 3.6977859
662.13243 3.6824127
662.29246 3.6670797
662.45249 3.6517868
662.61252 3.6365339
662.77255 3.6213211
662.93259 3.6061482
663.09262 3.5910152
663.25265 3.5759221
663.41268 3.5608688
663.57271 3.5458553
663.73275 3.5308816
663.89278 3.5159475
664.05281 3.501053
664.21284 3.4861981
664.37287 3.4713828
664.53291 3.456607
664.69294 3.4418706
664.85297 3.4271736
665.013 3.4125159
665.17303 3.3978976
665.33307 3.3833185
665.4931 3.3687786
665.65313 3.3542779
665.81316 3.3398163
665.97319 3.3253937
666.13323 3.3110102
666.29326 3.2966656
666.45329 3.2823599
666.61332 3.2680931
666.77335 3.2538652
666.93339 3.239676
667.09342 3.2255255
667.25345 3.2114137
667.41348 3.1973405
667.57351 3.1833059
667.73355 3.1693098
667.89358 3.1553522
668.05361 3.1414331
668.21364 3.1275523
668.37367 3.1137098
668.53371 3.0999056
668.69374 3.0861397
668.85377 3.072412
669.0138 3.0587223
669.17383 3.0450708
669.33387 3.0314573
669.4939 3.0178818
669.65393 3.0043442
669.81396 2.9908446
669.97399 2.9773827
670.13403 2.9639587
670.29406 2.9505723
670.45409 2.9372237
670.61412 2.9239127
670.77415 2.9106393
670.93419 2.8974035
671.09422 2.8842051
671.25425 2.8710442
671.41428 2.8579207
671.57431 2.8448345
671.73435 2.8317856
671.89438 2.8187739
672.05441 2.8057994
672.21444 2.7928621
672.37447 2.7799618
672.53451 2.7670986
672.69454 2.7542724
672.85457 2.7414831
673.0146 2.7287308
673.17463 2.7160152
673.33467 2.7033364
673.4947 2.6906944
673.65473 2.6780891
673.81476 2.6655204
673.97479 2.6529882
674.13483 2.6404927
674.29486 2.6280336
674.45489 2.6156109
674.61492 2.6032246
674.77495 2.5908746
674.93499 2.578561
675.09502 2.5662835
675.25505 2.5540423
675.41508 2.5418371
675.57512 2.5296681
675.73515 2.517535
675.89518 2.505438
676.05521 2.4933769
676.21524 2.4813516
676.37528 2.4693622
676.53531 2.4574085
676.69534 2.4454906
676.85537 2.4336083
677.0154 2.4217617
677.17544 2.4099506
677.33547 2.398175
677.4955 2.3864349
677.65553 2.3747303
677.81556 2.3630609
677.9756 2.3514269
678.13563 2.3398282
678.29566 2.3282647
678.45569 2.3167363
678.61572 2.305243
678.77576 2.2937848
678.93579 2.2823616
679.09582 2.2709734
679.25585 2.25962
679.41588 2.2483015
679.57592 2.2370179
679.73595 2.2257689
679.89598 2.2145547
680.05601 2.2033751
680.21604 2.1922301
680.37608 2.1811197
680.53611 2.1700437
680.69614 2.1590022
680.85617 2.1479951
681.0162 2.1370223
681.17624 2.1260838
681.33627 2.1151795
681.4963 2.1043095
681.65633 2.0934735
681.81636 2.0826717
681.9764 2.0719039
682.13643 2.0611701
682.29646 2.0504702
682.45649 2.0398041
682.61652 2.0291719
682.77656 2.0185735
682.93659 2.0080088
683.09662 1.9974778
683.25665 1.9869804
683.41668 1.9765166
683.57672 1.9660863
683.73675 1.9556895
683.89678 1.9453261
684.05681 1.9349961
684.21684 1.9246993
684.37688 1.9144359
684.53691 1.9042057
684.69694 1.8940086
684.85697 1.8838446
685.017 1.8737137
685.17704 1.8636158
685.33707 1.8535509
685.4971 1.8435189
685.65713 1.8335198
685.81716 1.8235534
685.9772 1.8136198
686.13723 1.8037189
686.29726 1.7938507
686.45729 1.7840151
686.61732 1.774212
686.77736 1.7644414
686.93739 1.7547033
687.09742 1.7449976
687.25745 1.7353243
687.41748 1.7256832
687.57752 1.7160744
687.73755 1.7064978
687.89758 1.6969533
688.05761 1.687441
688.21764 1.6779606
688.37768 1.6685123
688.53771 1.659096
688.69774 1.6497115
688.85777 1.6403589
689.0178 1.631038
689.17784 1.621749
689.33787 1.6124916
689.4979 1.6032658
689.65793 1.5940717
689.81796 1.5849091
689.978 1.575778
690.13803 1.5666783
690.29806 1.5576101
690.45809 1.5485732
690.61812 1.5395676
690.77816 1.5305932
690.93819 1.52165
691.09822 1.512738
691.25825 1.5038571
691.41828 1.4950072
691.57832 1.4861883
691.73835 1.4774004
691.89838 1.4686433
692.05841 1.4599171
692.21844 1.4512217
692.37848 1.4425571
692.53851 1.4339232
692.69854 1.4253199
692.85857 1.4167472
693.0186 1.4082051
693.17864 1.3996935
693.33867 1.3912123
693.4987 1.3827615
693.65873 1.3743411
693.81876 1.365951
693.9788 1.3575912
694.13883 1.3492616
694.29886 1.3409621
694.45889 1.3326928
694.61892 1.3244535
694.77896 1.3162442
694.93899 1.3080649
695.09902 1.2999156
695.25905 1.291796
695.41908 1.2837064
695.57912 1.2756465
695.73915 1.2676163
695.89918 1.2596158
696.05921 1.2516449
696.21924 1.2437036
696.37928 1.2357919
696.53931 1.2279096
696.69934 1.2200568
696.85937 1.2122334
697.0194 1.2044393
697.17944 1.1966745
697.33947 1.1889389
697.4995 1.1812326
697.65953 1.1735554
697.81956 1.1659073
697.9796 1.1582883
698.13963 1.1506983
698.29966 1.1431372
698.45969 1.1356051
698.61972 1.1281019
698.77976 1.1206274
698.93979 1.1131818
699.09982 1.1057649
699.25985 1.0983766
699.41988 1.091017
699.57992 1.083686
699.73995 1.0763836
699.89998 1.0691096
700.06001 1.0618641
700.22004 1.054647
700.38008 1.0474583
700.54011 1.0402978
700.70014 1.0331657
700.86017 1.0260618
701.0202 1.018986
701.18024 1.0119384
701.34027 1.0049189
701.5003 0.99792736
701.66033 0.99096386
701.82036 0.98402831
701.9804 0.97712067
702.14043 0.97024089
702.30046 0.96338892
702.46049 0.95656472
702.62052 0.94976825
702.78056 0.94299946
702.94059 0.9362583
703.10062 0.92954473
703.26065 0.92285872
703.42068 0.9162002
703.58072 0.90956914
703.74075 0.9029655
703.90078 0.89638922
704.06081 0.88984028
704.22084 0.88331861
704.38088 0.87682418
704.54091 0.87035695
704.70094 0.86391686
704.86097 0.85750389
705.021 0.85111798
705.18104 0.84475909
705.34107 0.83842717
705.5011 0.83212219
705.66113 0.8258441
705.82116 0.81959286
705.9812 0.81336843
706.14123 0.80717075
706.30126 0.8009998
706.46129 0.79485553
706.62132 0.78873789
706.78136 0.78264684
706.94139 0.77658234
707.10142 0.77054435
707.26145 0.76453283
707.42148 0.75854773
707.58152 0.75258902
707.74155 0.74665665
707.90158 0.74075057
708.06161 0.73487076
708.22164 0.72901716
708.38168 0.72318974
708.54171 0.71738845
708.70174 0.71161325
708.86177 0.70586411
709.0218 0.70014098
709.18184 0.69444382
709.34187 0.68877259
709.5019 0.68312725
709.66193 0.67750777
709.82196 0.67191409
709.982 0.66634618
710.14203 0.660804
710.30206 0.6552875
710.46209 0.64979666
710.62212 0.64433143
710.78216 0.63889177
710.94219 0.63347764
711.10222 0.628089
711.26225 0.62272582
711.42228 0.61738805
711.58232 0.61207565
711.74235 0.60678859
711.90238 0.60152683
712.06241 0.59629032
712.22244 0.59107904
712.38248 0.58589293
712.54251 0.58073198
712.70254 0.57559612
712.86257 0.57048534
713.0226 0.56539958
713.18264 0.56033882
713.34267 0.55530301
713.5027 0.55029212
713.66273 0.5453061
713.82276 0.54034493
713.9828 0.53540857
714.14283 0.53049697
714.30286 0.52561011
714.46289 0.52074794
714.62292 0.51591043
714.78296 0.51109754
714.94299 0.50630924
715.10302 0.50154548
715.26305 0.49680624
715.42308 0.49209148
715.58312 0.48740116
715.74315 0.48273524
715.90318 0.4780937
716.06321 0.47347649
716.22324 0.46888358
716.38328 0.46431494
716.54331 0.45977052
716.70334 0.4552503
716.86337 0.45075424
717.0234 0.44628231
717.18344 0.44183447
717.34347 0.43741068
717.5035 0.43301092
717.66353 0.42863515
717.82356 0.42428333
717.9836 0.41995543
718.14363 0.41565142
718.30366 0.41137126
718.46369 0.40711493
718.62372 0.40288238
718.78376 0.39867359
718.94379 0.39448851
719.10382 0.39032713
719.26385 0.3861894
719.42388 0.3820753
719.58392 0.37798479
719.74395 0.37391783
719.90398 0.36987441
720.06401 0.36585448
720.22404 0.36185801
720.38408 0.35788497
720.54411 0.35393533
720.70414 0.35000907
720.86417 0.34610614
721.0242 0.34222651
721.18424 0.33837017
721.34427 0.33453706
721.5043 0.33072718
721.66433 0.32694047
721.82436 0.32317692
721.9844 0.31943649
722.14443 0.31571916
722.30446 0.31202489
722.46449 0.30835365
722.62452 0.30470542
722.78456 0.30108016
722.94459 0.29747784
723.10462 0.29389845
723.26465 0.29034194
723.42468 0.28680829
723.58472 0.28329747
723.74475 0.27980945
723.90478 0.2763442
724.06481 0.2729017
724.22484 0.26948192
724.38488 0.26608482
724.54491 0.26271038
724.70494 0.25935858
724.86497 0.25602939
725.02501 0.25272277
725.18504 0.24943871
725.34507 0.24617717
725.5051 0.24293812
725.66513 0.23972155
725.82517 0.23652743
725.9852 0.23335572
726.14523 0.2302064
726.30526 0.22707945
726.46529 0.22397484
726.62533 0.22089255
726.78536 0.21783254
726.94539 0.2147948
727.10542 0.21177929
727.26545 0.208786
727.42549 0.2058149
727.58552 0.20286596
727.74555 0.19993916
727.90558 0.19703448
728.06561 0.19415188
728.22565 0.19129135
728.38568 0.18845286
728.54571 0.1856364
728.70574 0.18284192
728.86577 0.18006942
729.02581 0.17731886
729.18584 0.17459024
729.34587 0.17188351
729.5059 0.16919866
729.66593 0.16653567
729.82597 0.16389451
729.986 0.16127516
730.14603 0.1586776
730.30606 0.15610181
730.46609 0.15354777
730.62613 0.15101545
730.78616 0.14850483
730.94619 0.14601589
731.10622 0.14354862
731.26625 0.14110298
731.42629 0.13867896
731.58632 0.13627654
731.74635 0.13389569
731.90638 0.1315364
732.06641 0.12919865
732.22645 0.12688241
732.38648 0.12458767
732.54651 0.12231441
732.70654 0.12006261
732.86657 0.11783224
733.02661 0.11562329
733.18664 0.11343575
733.34667 0.11126958
733.5067 0.10912478
733.66673 0.10700132
733.82677 0.10489919
733.9868 0.10281836
734.14683 0.10075882
734.30686 0.098720561
734.46689 0.096703552
734.62693 0.09470778
734.78696 0.092733227
734.94699 0.090779877
735.10702 0.088847713
735.26705 0.086936718
735.42709 0.085046875
735.58712 0.083178168
735.74715 0.08133058
735.90718 0.079504097
736.06721 0.077698701
736.22725 0.075914377
736.38728 0.07415111
736.54731 0.072408883
736.70734 0.070687683
736.86737 0.068987494
737.02741 0.0673083
737.18744 0.065650089
737.34747 0.064012844
737.5075 0.062396552
737.66753 0.060801198
737.82757 0.059226769
737.9876 0.05767325
738.14763 0.056140629
738.30766 0.054628891
738.46769 0.053138024
738.62773 0.051668014
738.78776 0.050218848
738.94779 0.048790514
739.10782 0.047383
739.26785 0.045996292
739.42789 0.044630378
739.58792 0.043285247
739.74795 0.041960887
739.90798 0.040657286
740.06801 0.039374432
740.22805 0.038112315
740.38808 0.036870922
740.54811 0.035650244
740.70814 0.034450269
740.86817 0.033270987
741.02821 0.032112387
741.18824 0.030974459
741.34827 0.029857194
741.5083 0.02876058
741.66833 0.027684609
741.82837 0.02662927
741.9884 0.025594556
742.14843 0.024580455
742.30846 0.02358696
742.46849 0.022614062
742.62853 0.021661751
742.78856 0.02073002
742.94859 0.01981886
743.10862 0.018928264
743.26865 0.018058222
743.42869 0.017208728
743.58872 0.016379774
743.74875 0.015571353
743.90878 0.014783457
744.06881 0.014016079
744.22885 0.013269213
744.38888 0.012542852
744.54891 0.011836989
744.70894 0.011151619
744.86897 0.010486734
745.02901 0.0098423296
745.18904 0.0092183996
745.34907 0.0086149384
745.5091 0.0080319406
745.66913 0.0074694011
745.82917 0.0069273149
745.9892 0.006405677
746.14923 0.0059044829
746.30926 0.0054237281
746.46929 0.0049634082
746.62933 0.0045235192
746.78936 0.0041040572
746.94939 0.0037050184
747.10942 0.0033263992
747.26945 0.0029681963
747.42949 0.0026304064
747.58952 0.0023130266
747.74955 0.002016054
747.90958 0.0017394859
748.06961 0.0014833199
748.22965 0.0012475537
748.38968 0.0010321852
748.54971 0.00083721251
748.70974 0.0006626338
748.86977 0.00050844755
749.02981 0.00037465238
749.18984 0.00026124709
749.34987 0.00016823067
749.5099 9.5602297e-05
749.66993 4.3361309e-05
749.82997 1.1507244e-05
749.99 3.981742e-08
750.15003 0
750.31006 0
750.47009 0
750.63013 0
750.79016 0
750.95019 0
751.11022 0
751.27025 0
751.43029 0
751.59032 0
751.75035 0
751.91038 0
752.07041 0
752.23045 0
752.39048 0
752.55051 0
752.71054 0
752.87057 0
753.03061 0
753.19064 0
753.35067 0
753.5107 0
753.67073 0
753.83077 0
753.9908 0
754.15083 0
754.31086 0
754.47089 0
754.63093 0
754.79096 0
754.95099 0
755.11102 0
755.27105 0
755.43109 0
755.59112 0
755.75115 0
755.91118 0
756.07121 0
756.23125 0
756.39128 0
756.55131 0
756.71134 0
756.87137 0
757.03141 0
757.19144 0
757.35147 0
757.5115 0
757.67153 0
757.83157 0
757.9916 0
758.15163 0
758.31166 0
758.47169 0
758.63173 0
758.79176 0
758.95179 0
759.11182 0
759.27185 0
759.43189 0
759.59192 0
759.75195 0
759.91198 0
760.07201 0
760.23205 0
760.39208 0
760.55211 0
760.71214 0
760.87217 0
761.03221 0
761.19224 0
761.35227 0
761.5123 0
761.67233 0
761.83237 0
761.9924 0
762.15243 0
762.31246 0
762.47249 0
762.63253 0
762.79256 0
762.95259 0
763.11262 0
763.27265 0
763.43269 0
763.59272 0
763.75275 0
763.91278 0
764.07281 0
764.23285 0
764.39288 0
764.55291 0
764.71294 0
764.87297 0
765.03301 0
765.19304 0
765.35307 0
765.5131 0
765.67313 0
765.83317 0
765.9932 0
766.15323 0
766.31326 0
766.47329 0
766.63333 0
766.79336 0
766.95339 0
767.11342 0
767.27345 0
767.43349 0
767.59352 0
767.75355 0
767.91358 0
768.07361 0
768.23365 0
768.39368 0
768.55371 0
768.71374 0
768.87377 0
769.03381 0
769.19384 0
769.35387 0
769.5139 0
769.67393 0
769.83397 0
769.994 0
770.15403 0
770.31406 0
770.47409 0
770.63413 0
770.79416 0
770.95419 0
771.11422 0
771.27425 0
771.43429 0
771.59432 0
771.75435 0
771.91438 0
772.07441 0
772.23445 0
772.39448 0
772.55451 0
772.71454 0
772.87457 0
773.03461 0
773.19464 0
773.35467 0
773.5147 0
773.67473 0
773.83477 0
773.9948 0
774.15483 0
774.31486 0
774.47489 0
774.63493 0
774.79496 0
774.95499 0
775.11502 0
775.27506 0
775.43509 0
775.59512 0
775.75515 0
775.91518 0
776.07522 0
776.23525 0
776.39528 0
776.55531 0
776.71534 0
776.87538 0
777.03541 0
777.19544 0
777.35547 0
777.5155 0
777.67554 0
777.83557 0
777.9956 0
778.15563 0
778.31566 0
778.4757 0
778.63573 0
778.79576 0
778.95579 0
779.11582 0
779.27586 0
779.43589 0
779.59592 0
779.75595 0
779.91598 0
780.07602 0
780.23605 0
780.39608 0
780.55611 0
780.71614 0
780.87618 0
781.03621 0
781.19624 0
781.35627 0
781.5163 0
781.67634 0
781.83637 0
781.9964 0
782.15643 0
782.31646 0
782.4765 0
782.63653 0
782.79656 0
782.95659 0
783.11662 0
783.27666 0
783.43669 0
783.59672 0
783.75675 0
783.91678 0
784.07682 0
784.23685 0
784.39688 0
784.55691 0
784.71694 0
784.87698 0
785.03701 0
785.19704 0
785.35707 0
785.5171 0
785.67714 0
785.83717 0
785.9972 0
786.15723 0
786.31726 0
786.4773 0
786.63733 0
786.79736 0
786.95739 0
787.11742 0
787.27746 0
787.43749 0
787.59752 0
787.75755 0
787.91758 0
788.07762 0
788.23765 0
788.39768 0
788.55771 0
788.71774 0
788.87778 0
789.03781 0
789.19784 0
789.35787 0
789.5179 0
789.67794 0
789.83797 0
789.998 0
790.15803 0
790.31806 0
790.4781 0
790.63813 0
790.79816 0
790.95819 0
791.11822 0
791.27826 0
791.43829 0
791.59832 0
791.75835 0
791.91838 0
792.07842 0
792.23845 0
792.39848 0
792.55851 0
792.71854 0
792.87858 0
793.03861 0
793.19864 0
793.35867 0
793.5187 0
793.67874 0
793.83877 0
793.9988 0
794.15883 0
794.31886 0
794.4789 0
794.63893 0
794.79896 0
794.95899 0
795.11902 0
795.27906 0
795.43909 0
795.59912 0
795.75915 0
795.91918 0
796.07922 0
796.23925 0
796.39928 0
796.55931 0
796.71934 0
796.87938 0
797.03941 0
797.19944 0
797.35947 0
797.5195 0
797.67954 0
797.83957 0
797.9996 0
798.15963 0
798.31966 0
798.4797 0
798.63973 0
798.79976 0
798.95979 0
799.11982 0
799.27986 0
799.43989 0
799.59992 0
799.75995 0
799.91998 0
